Data from Sample_Bg_Subt2_012.txt Node
Date: Tue Aug 27 12:42:08 EDT 2019
User: wcc
Spectrometer: QEPB0759
Trigger mode: 0
Integration Time (sec): 1.000000E0
Scans to average: 1
Electric dark correction enabled: true
Nonlinearity correction enabled: false
Boxcar width: 0
XAxis mode: Wavelengths
Number of Pixels in Spectrum: 1044
>>>>>Begin Spectral Data<<<<<
197.938	21.75
198.749	31.75
199.559	24.75
200.369	23.75
201.179	19.75
201.988	18.75
202.798	32.75
203.608	14.75
204.417	24.75
205.227	31.75
206.036	11.75
206.846	35.75
207.655	30.75
208.464	20.75
209.273	20.75
210.082	32.75
210.891	19.75
211.7	23.75
212.508	31.75
213.317	9.75
214.125	17.75
214.934	24.75
215.742	11.75
216.55	27.75
217.359	19.75
218.167	24.75
218.975	25.75
219.782	33.75
220.59	18.75
221.398	29.75
222.206	31.75
223.013	26.75
223.82	25.75
224.628	15.75
225.435	35.75
226.242	18.75
227.049	21.75
227.856	11.75
228.663	26.75
229.47	28.75
230.277	24.75
231.083	34.75
231.89	23.75
232.696	33.75
233.502	23.75
234.309	24.75
235.115	24.75
235.921	26.75
236.727	21.75
237.533	16.75
238.339	27.75
239.144	30.75
239.95	29.75
240.756	28.75
241.561	25.75
242.366	31.75
243.172	19.75
243.977	23.75
244.782	28.75
245.587	40.75
246.392	22.75
247.197	2.75
248.001	43.75
248.806	42.75
249.611	23.75
250.415	32.75
251.219	19.75
252.024	23.75
252.828	22.75
253.632	24.75
254.436	26.75
255.24	35.75
256.044	22.75
256.848	19.75
257.651	21.75
258.455	27.75
259.258	13.75
260.062	1086.75
260.865	26.75
261.668	27.75
262.471	13.75
263.274	25.75
264.077	16.75
264.88	18.75
265.683	26.75
266.486	11.75
267.288	23.75
268.091	31.75
268.893	16.75
269.696	29.75
270.498	31.75
271.3	23.75
272.102	20.75
272.904	16.75
273.706	20.75
274.508	21.75
275.309	40.75
276.111	36.75
276.913	15.75
277.714	24.75
278.515	18.75
279.317	23.75
280.118	22.75
280.919	30.75
281.72	23.75
282.521	31.75
283.322	28.75
284.122	23.75
284.923	6.75
285.724	24.75
286.524	30.75
287.325	41.75
288.125	7.75
288.925	35.75
289.725	9.75
290.525	23.75
291.325	17.75
292.125	23.75
292.925	27.75
293.724	40.75
294.524	31.75
295.324	28.75
296.123	29.75
296.922	17.75
297.722	41.75
298.521	30.75
299.32	15.75
300.119	26.75
300.918	32.75
301.716	27.75
302.515	21.75
303.314	27.75
304.112	28.75
304.911	21.75
305.709	34.75
306.507	29.75
307.306	14.75
308.104	24.75
308.902	25.75
309.7	34.75
310.498	20.75
311.295	27.75
312.093	30.75
312.891	24.75
313.688	31.75
314.485	20.75
315.283	29.75
316.08	17.75
316.877	33.75
317.674	13.75
318.471	41.75
319.268	21.75
320.065	25.75
320.862	26.75
321.658	20.75
322.455	26.75
323.251	29.75
324.047	37.75
324.844	41.75
325.64	23.75
326.436	22.75
327.232	21.75
328.028	24.75
328.824	31.75
329.62	23.75
330.415	26.75
331.211	29.75
332.006	28.75
332.802	31.75
333.597	33.75
334.392	34.75
335.187	21.75
335.982	27.75
336.777	19.75
337.572	33.75
338.367	32.75
339.162	17.75
339.956	21.75
340.751	24.75
341.545	32.75
342.34	21.75
343.134	24.75
343.928	30.75
344.722	26.75
345.516	26.75
346.31	20.75
347.104	27.75
347.898	30.75
348.691	8.75
349.485	16.75
350.278	17.75
351.072	33.75
351.865	562.75
352.658	18.75
353.452	12.75
354.245	14.75
355.038	20.75
355.83	31.75
356.623	32.75
357.416	29.75
358.209	19.75
359.001	24.75
359.794	26.75
360.586	34.75
361.378	36.75
362.17	16.75
362.963	22.75
363.755	18.75
364.546	28.75
365.338	32.75
366.13	19.75
366.922	21.75
367.713	26.75
368.505	34.75
369.296	20.75
370.088	31.75
370.879	25.75
371.67	23.75
372.461	25.75
373.252	26.75
374.043	21.75
374.834	26.75
375.625	35.75
376.415	12.75
377.206	17.75
377.996	30.75
378.787	31.75
379.577	25.75
380.367	20.75
381.157	24.75
381.947	22.75
382.737	7.75
383.527	33.75
384.317	30.75
385.107	19.75
385.896	3.75
386.686	18.75
387.475	18.75
388.265	29.75
389.054	23.75
389.843	17.75
390.632	23.75
391.421	21.75
392.21	21.75
392.999	13.75
393.788	28.75
394.576	14.75
395.365	22.75
396.154	17.75
396.942	20.75
397.73	27.75
398.519	30.75
399.307	20.75
400.095	23.75
400.883	6.75
401.671	22.75
402.459	18.75
403.246	11.75
404.034	38.75
404.822	20.75
405.609	28.75
406.396	29.75
407.184	27.75
407.971	29.75
408.758	27.75
409.545	20.75
410.332	35.75
411.119	22.75
411.906	13.75
412.693	20.75
413.479	39.75
414.266	23.75
415.052	24.75
415.839	24.75
416.625	10.75
417.411	27.75
418.197	30.75
418.983	31.75
419.769	23.75
420.555	26.75
421.341	36.75
422.127	26.75
422.912	40.75
423.698	13.75
424.483	11.75
425.269	45.75
426.054	9.75
426.839	28.75
427.624	15.75
428.409	38.75
429.194	29.75
429.979	28.75
430.764	18.75
431.549	39.75
432.333	27.75
433.118	8.75
433.902	20.75
434.687	19.75
435.471	21.75
436.255	12.75
437.039	28.75
437.823	22.75
438.607	14.75
439.391	16.75
440.175	5.75
440.958	29.75
441.742	27.75
442.526	11.75
443.309	18.75
444.092	36.75
444.876	38.75
445.659	30.75
446.442	23.75
447.225	22.75
448.008	31.75
448.791	32.75
449.573	22.75
450.356	35.75
451.139	37.75
451.921	20.75
452.704	18.75
453.486	39.75
454.268	33.75
455.05	19.75
455.833	29.75
456.615	33.75
457.396	30.75
458.178	12.75
458.96	25.75
459.742	35.75
460.523	24.75
461.305	30.75
462.086	31.75
462.868	39.75
463.649	35.75
464.43	46.75
465.211	29.75
465.992	38.75
466.773	33.75
467.554	27.75
468.335	29.75
469.115	32.75
469.896	23.75
470.676	31.75
471.457	31.75
472.237	36.75
473.018	4.75
473.798	44.75
474.578	44.75
475.358	24.75
476.138	20.75
476.918	35.75
477.697	13.75
478.477	35.75
479.257	23.75
480.036	16.75
480.816	22.75
481.595	31.75
482.374	13.75
483.153	32.75
483.932	19.75
484.711	5.75
485.49	31.75
486.269	22.75
487.048	14.75
487.827	11.75
488.605	15.75
489.384	20.75
490.162	5.75
490.941	2.75
491.719	11.75
492.497	13.75
493.275	19.75
494.053	19.75
494.831	8.75
495.609	28.75
496.387	19.75
497.164	22.75
497.942	28.75
498.72	19.75
499.497	26.75
500.274	11.75
501.052	36.75
501.829	33.75
502.606	25.75
503.383	27.75
504.16	26.75
504.937	22.75
505.714	31.75
506.49	42.75
507.267	25.75
508.043	22.75
508.82	22.75
509.596	24.75
510.373	5.75
511.149	27.75
511.925	18.75
512.701	14.75
513.477	31.75
514.253	20.75
515.029	29.75
515.804	23.75
516.58	32.75
517.356	19.75
518.131	36.75
518.906	22.75
519.682	18.75
520.457	10.75
521.232	18.75
522.007	26.75
522.782	17.75
523.557	23.75
524.332	17.75
525.107	33.75
525.881	25.75
526.656	31.75
527.43	24.75
528.205	26.75
528.979	19.75
529.753	40.75
530.527	37.75
531.302	6.75
532.076	19.75
532.849	13.75
533.623	29.75
534.397	15.75
535.171	33.75
535.944	34.75
536.718	20.75
537.491	29.75
538.265	30.75
539.038	21.75
539.811	12.75
540.584	17.75
541.357	14.75
542.13	37.75
542.903	11.75
543.676	27.75
544.449	15.75
545.221	9.75
545.994	15.75
546.766	16.75
547.539	10.75
548.311	25.75
549.083	20.75
549.855	15.75
550.627	26.75
551.399	24.75
552.171	22.75
552.943	34.75
553.715	17.75
554.486	34.75
555.258	8.75
556.029	28.75
556.801	29.75
557.572	25.75
558.343	27.75
559.114	18.75
559.886	22.75
560.657	23.75
561.427	28.75
562.198	27.75
562.969	22.75
563.74	36.75
564.51	12.75
565.281	13.75
566.051	22.75
566.822	25.75
567.592	12.75
568.362	25.75
569.132	33.75
569.902	33.75
570.672	29.75
571.442	23.75
572.212	30.75
572.982	26.75
573.751	23.75
574.521	47.75
575.29	17.75
576.06	19.75
576.829	19.75
577.598	15.75
578.367	10.75
579.136	11.75
579.905	19.75
580.674	25.75
581.443	26.75
582.212	12.75
582.981	26.75
583.749	19.75
584.518	31.75
585.286	11.75
586.054	29.75
586.823	35.75
587.591	11.75
588.359	25.75
589.127	13.75
589.895	24.75
590.663	21.75
591.431	21.75
592.198	29.75
592.966	33.75
593.734	27.75
594.501	20.75
595.268	27.75
596.036	28.75
596.803	32.75
597.57	27.75
598.337	23.75
599.104	24.75
599.871	22.75
600.638	18.75
601.405	20.75
602.171	33.75
602.938	33.75
603.704	23.75
604.471	22.75
605.237	29.75
606.004	24.75
606.77	32.75
607.536	20.75
608.302	23.75
609.068	35.75
609.834	33.75
610.599	19.75
611.365	28.75
612.131	33.75
612.896	36.75
613.662	35.75
614.427	22.75
615.193	32.75
615.958	19.75
616.723	29.75
617.488	38.75
618.253	22.75
619.018	32.75
619.783	27.75
620.548	35.75
621.312	38.75
622.077	41.75
622.842	36.75
623.606	40.75
624.37	22.75
625.135	13.75
625.899	41.75
626.663	30.75
627.427	47.75
628.191	36.75
628.955	44.75
629.719	36.75
630.483	35.75
631.246	33.75
632.01	36.75
632.773	47.75
633.537	53.75
634.3	36.75
635.063	21.75
635.827	31.75
636.59	24.75
637.353	14.75
638.116	50.75
638.879	32.75
639.641	31.75
640.404	47.75
641.167	43.75
641.929	39.75
642.692	31.75
643.454	39.75
644.216	24.75
644.979	36.75
645.741	39.75
646.503	36.75
647.265	42.75
648.027	44.75
648.789	39.75
649.551	31.75
650.312	30.75
651.074	38.75
651.835	40.75
652.597	39.75
653.358	36.75
654.12	44.75
654.881	42.75
655.642	36.75
656.403	37.75
657.164	49.75
657.925	47.75
658.686	35.75
659.447	48.75
660.207	38.75
660.968	45.75
661.728	42.75
662.489	45.75
663.249	43.75
664.01	27.75
664.77	29.75
665.53	39.75
666.29	34.75
667.05	59.75
667.81	43.75
668.57	43.75
669.329	35.75
670.089	41.75
670.849	36.75
671.608	48.75
672.368	50.75
673.127	47.75
673.886	41.75
674.646	29.75
675.405	47.75
676.164	39.75
676.923	43.75
677.682	39.75
678.44	49.75
679.199	45.75
679.958	77.75
680.717	33.75
681.475	47.75
682.233	46.75
682.992	44.75
683.75	30.75
684.508	47.75
685.266	46.75
686.024	47.75
686.782	41.75
687.54	43.75
688.298	40.75
689.056	37.75
689.814	39.75
690.571	52.75
691.329	50.75
692.086	41.75
692.843	35.75
693.601	38.75
694.358	39.75
695.115	40.75
695.872	44.75
696.629	48.75
697.386	33.75
698.143	44.75
698.9	43.75
699.656	38.75
700.413	28.75
701.169	40.75
701.926	37.75
702.682	38.75
703.438	42.75
704.195	30.75
704.951	39.75
705.707	31.75
706.463	41.75
707.219	33.75
707.974	37.75
708.73	19.75
709.486	40.75
710.241	31.75
710.997	36.75
711.752	51.75
712.508	41.75
713.263	31.75
714.018	29.75
714.773	39.75
715.528	35.75
716.283	22.75
717.038	42.75
717.793	41.75
718.548	32.75
719.303	38.75
720.057	32.75
720.812	29.75
721.566	32.75
722.321	37.75
723.075	30.75
723.829	46.75
724.583	27.75
725.337	42.75
726.091	17.75
726.845	32.75
727.599	24.75
728.353	39.75
729.106	23.75
729.86	35.75
730.614	31.75
731.367	-171.25
732.12	39.75
732.874	34.75
733.627	42.75
734.38	40.75
735.133	37.75
735.886	24.75
736.639	33.75
737.392	26.75
738.145	31.75
738.897	35.75
739.65	22.75
740.403	36.75
741.155	37.75
741.907	25.75
742.66	30.75
743.412	31.75
744.164	43.75
744.916	37.75
745.668	32.75
746.42	42.75
747.172	36.75
747.924	27.75
748.676	28.75
749.427	23.75
750.179	16.75
750.93	28.75
751.682	31.75
752.433	32.75
753.184	41.75
753.935	41.75
754.687	26.75
755.438	31.75
756.189	28.75
756.939	34.75
757.69	30.75
758.441	33.75
759.192	21.75
759.942	29.75
760.693	28.75
761.443	47.75
762.194	28.75
762.944	17.75
763.694	31.75
764.444	16.75
765.194	34.75
765.944	22.75
766.694	20.75
767.444	19.75
768.194	37.75
768.943	19.75
769.693	21.75
770.443	33.75
771.192	29.75
771.941	24.75
772.691	27.75
773.44	13.75
774.189	33.75
774.938	17.75
775.687	18.75
776.436	30.75
777.185	26.75
777.934	27.75
778.683	26.75
779.431	40.75
780.18	29.75
780.928	20.75
781.677	32.75
782.425	30.75
783.173	31.75
783.922	28.75
784.67	13.75
785.418	33.75
786.166	41.75
786.914	22.75
787.661	17.75
788.409	25.75
789.157	30.75
789.904	12.75
790.652	26.75
791.399	19.75
792.147	34.75
792.894	21.75
793.641	28.75
794.388	121.75
795.136	17.75
795.883	36.75
796.629	9.75
797.376	21.75
798.123	25.75
798.87	18.75
799.616	21.75
800.363	34.75
801.109	28.75
801.856	26.75
802.602	10.75
803.349	40.75
804.095	26.75
804.841	24.75
805.587	24.75
806.333	20.75
807.079	36.75
807.825	21.75
808.57	28.75
809.316	36.75
810.062	25.75
810.807	35.75
811.553	41.75
812.298	17.75
813.043	39.75
813.788	27.75
814.534	19.75
815.279	14.75
816.024	21.75
816.769	23.75
817.514	17.75
818.258	30.75
819.003	29.75
819.748	697.75
820.492	33.75
821.237	123.75
821.981	21.75
822.726	17.75
823.47	25.75
824.214	14.75
824.958	36.75
825.702	26.75
826.446	19.75
827.19	20.75
827.934	11.75
828.678	28.75
829.421	25.75
830.165	23.75
830.909	20.75
831.652	14.75
832.395	17.75
833.139	21.75
833.882	33.75
834.625	16.75
835.368	23.75
836.111	27.75
836.854	33.75
837.597	24.75
838.34	27.75
839.083	28.75
839.825	18.75
840.568	11.75
841.311	14.75
842.053	29.75
842.795	20.75
843.538	18.75
844.28	24.75
845.022	-0.25
845.764	23.75
846.506	13.75
847.248	22.75
847.99	26.75
848.732	26.75
849.474	21.75
850.215	19.75
850.957	17.75
851.698	27.75
852.44	17.75
853.181	31.75
853.922	22.75
854.664	28.75
855.405	28.75
856.146	26.75
856.887	31.75
857.628	28.75
858.369	5.75
859.109	20.75
859.85	22.75
860.591	20.75
861.331	36.75
862.072	33.75
862.812	12.75
863.553	21.75
864.293	41.75
865.033	28.75
865.773	25.75
866.513	26.75
867.253	15.75
867.993	25.75
868.733	18.75
869.473	24.75
870.213	27.75
870.952	22.75
871.692	25.75
872.431	31.75
873.171	15.75
873.91	24.75
874.649	13.75
875.388	52.75
876.128	25.75
876.867	18.75
877.606	29.75
878.345	32.75
879.083	15.75
879.822	17.75
880.561	32.75
881.299	31.75
882.038	25.75
882.777	26.75
883.515	36.75
884.253	130.75
884.992	29.75
885.73	8.75
886.468	18.75
887.206	35.75
887.944	38.75
888.682	20.75
889.42	34.75
890.157	26.75
890.895	27.75
891.633	25.75
892.37	35.75
893.108	29.75
893.845	15.75
894.583	24.75
895.32	37.75
896.057	26.75
896.794	26.75
897.531	17.75
898.268	19.75
899.005	19.75
899.742	28.75
900.479	14.75
901.215	23.75
901.952	28.75
902.689	39.75
903.425	16.75
904.162	6.75
904.898	27.75
905.634	22.75
906.37	20.75
907.106	18.75
907.843	16.75
908.579	23.75
909.314	18.75
910.05	18.75
910.786	32.75
911.522	21.75
912.257	17.75
912.993	20.75
913.728	11.75
914.464	28.75
915.199	27.75
915.935	26.75
916.67	20.75
917.405	22.75
918.14	16.75
918.875	30.75
919.61	45.75
920.345	32.75
921.08	24.75
921.814	22.75
922.549	10.75
923.284	34.75
924.018	13.75
924.752	19.75
925.487	26.75
926.221	26.75
926.955	16.75
927.69	25.75
928.424	28.75
929.158	24.75
929.892	10.75
930.625	25.75
931.359	29.75
932.093	22.75
932.827	27.75
933.56	32.75
934.294	14.75
935.027	23.75
935.761	36.75
936.494	40.75
937.227	33.75
937.96	31.75
938.693	28.75
939.426	14.75
940.159	6.75
940.892	26.75
941.625	12.75
942.358	28.75
943.091	29.75
943.823	17.75
944.556	13.75
945.288	31.75
946.021	25.75
946.753	25.75
947.485	26.75
948.217	27.75
948.95	36.75
949.682	15.75
950.414	28.75
951.146	31.75
951.877	26.75
952.609	33.75
953.341	20.75
954.073	30.75
954.804	25.75
955.536	32.75
956.267	15.75
956.998	22.75
957.73	20.75
958.461	19.75
959.192	33.75
959.923	33.75
960.654	32.75
961.385	27.75
962.116	22.75
962.847	25.75
963.578	23.75
964.308	28.75
965.039	20.75
965.769	14.75
966.5	34.75
967.23	19.75
967.961	24.75
968.691	29.75
969.421	23.75
970.151	28.75
970.881	26.75
971.611	35.75
972.341	21.75
973.071	11.75
973.801	22.75
974.53	31.75
975.26	23.75
975.99	12.75
976.719	22.75
977.448	29.75
978.178	35.75
978.907	24.75
979.636	26.75
980.365	21.75
981.095	11.75
981.824	24.75
982.553	15.75
983.281	19.75
984.01	-1.25
984.739	3.75
985.468	-0.25
986.196	-4.25
986.925	37.75
987.653	24.75
988.382	7.75
989.11	18.75
989.838	25.75
990.566	17.75
991.295	20.75
992.023	25.75
992.751	23.75
993.478	12.75
994.206	30.75
994.934	22.75
995.662	-2.25
996.389	3.75
997.117	-1.25
997.845	1.75
