Data from Sample_Subt2_006.txt Node
Date: Tue Aug 27 12:41:02 EDT 2019
User: wcc
Spectrometer: QEPB0759
Trigger mode: 0
Integration Time (sec): 1.000000E0
Scans to average: 1
Electric dark correction enabled: true
Nonlinearity correction enabled: false
Boxcar width: 0
XAxis mode: Wavelengths
Number of Pixels in Spectrum: 1044
>>>>>Begin Spectral Data<<<<<
197.938	29
198.749	32
199.559	35
200.369	31
201.179	26
201.988	33
202.798	36
203.608	17
204.417	35
205.227	41
206.036	28
206.846	44
207.655	35
208.464	33
209.273	38
210.082	37
210.891	32
211.7	37
212.508	32
213.317	24
214.125	19
214.934	37
215.742	28
216.55	35
217.359	24
218.167	42
218.975	43
219.782	34
220.59	24
221.398	25
222.206	29
223.013	41
223.82	28
224.628	31
225.435	31
226.242	29
227.049	28
227.856	24
228.663	31
229.47	32
230.277	33
231.083	34
231.89	29
232.696	28
233.502	36
234.309	36
235.115	36
235.921	31
236.727	28
237.533	26
238.339	34
239.144	40
239.95	35
240.756	44
241.561	30
242.366	37
243.172	32
243.977	31
244.782	25
245.587	29
246.392	26
247.197	19
248.001	39
248.806	34
249.611	29
250.415	35
251.219	31
252.024	25
252.828	37
253.632	29
254.436	36
255.24	42
256.044	29
256.848	28
257.651	26
258.455	31
259.258	26
260.062	709
260.865	30
261.668	36
262.471	27
263.274	25
264.077	16
264.88	22
265.683	30
266.486	20
267.288	16
268.091	34
268.893	34
269.696	34
270.498	35
271.3	26
272.102	26
272.904	19
273.706	28
274.508	24
275.309	58
276.111	37
276.913	24
277.714	25
278.515	16
279.317	36
280.118	31
280.919	26
281.72	34
282.521	25
283.322	27
284.122	30
284.923	22
285.724	26
286.524	33
287.325	28
288.125	22
288.925	25
289.725	20
290.525	34
291.325	18
292.125	20
292.925	29
293.724	28
294.524	16
295.324	17
296.123	26
296.922	35
297.722	39
298.521	31
299.32	28
300.119	21
300.918	34
301.716	24
302.515	28
303.314	30
304.112	30
304.911	36
305.709	24
306.507	24
307.306	25
308.104	37
308.902	23
309.7	48
310.498	30
311.295	25
312.093	38
312.891	26
313.688	25
314.485	16
315.283	35
316.08	31
316.877	32
317.674	14
318.471	44
319.268	28
320.065	23
320.862	34
321.658	28
322.455	32
323.251	27
324.047	33
324.844	26
325.64	19
326.436	24
327.232	19
328.028	31
328.824	34
329.62	22
330.415	34
331.211	33
332.006	25
332.802	33
333.597	30
334.392	30
335.187	21
335.982	35
336.777	24
337.572	31
338.367	22
339.162	23
339.956	26
340.751	27
341.545	36
342.34	9
343.134	24
343.928	25
344.722	28
345.516	22
346.31	21
347.104	26
347.898	33
348.691	27
349.485	21
350.278	18
351.072	34
351.865	188
352.658	34
353.452	23
354.245	20
355.038	21
355.83	25
356.623	35
357.416	38
358.209	23
359.001	21
359.794	30
360.586	41
361.378	25
362.17	9
362.963	17
363.755	28
364.546	35
365.338	33
366.13	38
366.922	35
367.713	25
368.505	29
369.296	30
370.088	31
370.879	41
371.67	37
372.461	28
373.252	32
374.043	47
374.834	32
375.625	57
376.415	37
377.206	45
377.996	77
378.787	74
379.577	84
380.367	98
381.157	115
381.947	132
382.737	154
383.527	179
384.317	215
385.107	245
385.896	265
386.686	315
387.475	373
388.265	407
389.054	462
389.843	505
390.632	567
391.421	645
392.21	693
392.999	751
393.788	837
394.576	924
395.365	998
396.154	1086
396.942	1149
397.73	1222
398.519	1313
399.307	1364
400.095	1463
400.883	1501
401.671	1617
402.459	1687
403.246	1770
404.034	1883
404.822	1944
405.609	2020
406.396	2089
407.184	2139
407.971	2206
408.758	2245
409.545	2312
410.332	2378
411.119	2468
411.906	2582
412.693	2680
413.479	2773
414.266	2925
415.052	3114
415.839	3255
416.625	3421
417.411	3598
418.197	3767
418.983	3903
419.769	3935
420.555	3908
421.341	3864
422.127	3808
422.912	3822
423.698	3781
424.483	3813
425.269	3885
426.054	3941
426.839	4059
427.624	4224
428.409	4423
429.194	4579
429.979	4779
430.764	4963
431.549	5188
432.333	5348
433.118	5494
433.902	5663
434.687	5795
435.471	5936
436.255	6099
437.039	6286
437.823	6458
438.607	6563
439.391	6626
440.175	6776
440.958	6931
441.742	7115
442.526	7248
443.309	7428
444.092	7624
444.876	7783
445.659	7954
446.442	8143
447.225	8357
448.008	8839
448.791	9619
449.573	10396
450.356	10431
451.139	10309
451.921	10450
452.704	10328
453.486	10267
454.268	10416
455.05	10682
455.833	10985
456.615	11285
457.396	11567
458.178	11617
458.96	11568
459.742	11492
460.523	11573
461.305	11825
462.086	12147
462.868	12110
463.649	11880
464.43	11687
465.211	11749
465.992	12252
466.773	13024
467.554	13463
468.335	13255
469.115	12692
469.896	11990
470.676	11458
471.457	11367
472.237	11956
473.018	12030
473.798	11042
474.578	9974
475.358	9365
476.138	8983
476.918	8672
477.697	8490
478.477	8341
479.257	8244
480.036	8381
480.816	8390
481.595	8175
482.374	7765
483.153	7397
483.932	6989
484.711	6554
485.49	6207
486.269	5917
487.048	5702
487.827	5458
488.605	5327
489.384	5149
490.162	5066
490.941	5158
491.719	5165
492.497	4922
493.275	4600
494.053	4290
494.831	3966
495.609	3728
496.387	3512
497.164	3296
497.942	3143
498.72	2956
499.497	2766
500.274	2619
501.052	2447
501.829	2262
502.606	2080
503.383	1903
504.16	1741
504.937	1563
505.714	1419
506.49	1271
507.267	1095
508.043	970
508.82	828
509.596	733
510.373	634
511.149	554
511.925	462
512.701	387
513.477	348
514.253	289
515.029	239
515.804	208
516.58	183
517.356	154
518.131	141
518.906	120
519.682	97
520.457	100
521.232	84
522.007	90
522.782	66
523.557	65
524.332	66
525.107	71
525.881	69
526.656	69
527.43	66
528.205	65
528.979	54
529.753	66
530.527	73
531.302	57
532.076	52
532.849	55
533.623	51
534.397	44
535.171	62
535.944	64
536.718	59
537.491	52
538.265	51
539.038	56
539.811	59
540.584	36
541.357	57
542.13	73
542.903	50
543.676	47
544.449	49
545.221	42
545.994	46
546.766	42
547.539	41
548.311	48
549.083	48
549.855	52
550.627	51
551.399	56
552.171	63
552.943	58
553.715	46
554.486	65
555.258	35
556.029	55
556.801	47
557.572	56
558.343	45
559.114	57
559.886	49
560.657	52
561.427	57
562.198	46
562.969	56
563.74	51
564.51	49
565.281	60
566.051	48
566.822	53
567.592	54
568.362	55
569.132	66
569.902	72
570.672	60
571.442	57
572.212	62
572.982	51
573.751	57
574.521	79
575.29	55
576.06	65
576.829	59
577.598	55
578.367	46
579.136	52
579.905	58
580.674	72
581.443	61
582.212	62
582.981	71
583.749	57
584.518	87
585.286	69
586.054	95
586.823	100
587.591	73
588.359	94
589.127	108
589.895	142
590.663	174
591.431	231
592.198	310
592.966	416
593.734	568
594.501	797
595.268	1081
596.036	1470
596.803	1945
597.57	2548
598.337	3261
599.104	4124
599.871	5045
600.638	6127
601.405	7275
602.171	8549
602.938	9821
603.704	11183
604.471	12550
605.237	13853
606.004	15222
606.77	16574
607.536	17870
608.302	19193
609.068	20334
609.834	21498
610.599	22624
611.365	23683
612.131	24661
612.896	25541
613.662	26346
614.427	27008
615.193	27735
615.958	28276
616.723	28833
617.488	29295
618.253	29674
619.018	30048
619.783	30322
620.548	30586
621.312	30817
622.077	31026
622.842	31076
623.606	31162
624.37	31137
625.135	31240
625.899	31179
626.663	31073
627.427	30851
628.191	30829
628.955	30652
629.719	30513
630.483	30386
631.246	30120
632.01	29899
632.773	29641
633.537	29364
634.3	29126
635.063	28860
635.827	28485
636.59	28210
637.353	27948
638.116	27663
638.879	27398
639.641	27242
640.404	26881
641.167	26596
641.929	26396
642.692	26175
643.454	25888
644.216	25706
644.979	25544
645.741	25393
646.503	25315
647.265	25144
648.027	25057
648.789	24864
649.551	24731
650.312	24410
651.074	23952
651.835	23635
652.597	23319
653.358	23041
654.12	22940
654.881	22742
655.642	22549
656.403	22468
657.164	22387
657.925	22263
658.686	22339
659.447	22329
660.207	22367
660.968	22436
661.728	22402
662.489	22529
663.249	22666
664.01	22736
664.77	22846
665.53	22968
666.29	23058
667.05	23144
667.81	23207
668.57	23266
669.329	23309
670.089	23383
670.849	23480
671.608	23507
672.368	23580
673.127	23603
673.886	23505
674.646	23476
675.405	23516
676.164	23464
676.923	23244
677.682	23156
678.44	22947
679.199	22922
679.958	22864
680.717	22951
681.475	23316
682.233	23936
682.992	23964
683.75	23509
684.508	23004
685.266	22429
686.024	22054
686.782	21707
687.54	21474
688.298	21246
689.056	20933
689.814	20566
690.571	20183
691.329	19831
692.086	19388
692.843	19031
693.601	18744
694.358	18386
695.115	17930
695.872	17658
696.629	17416
697.386	17179
698.143	16902
698.9	16611
699.656	16487
700.413	16351
701.169	16256
701.926	16151
702.682	15981
703.438	15899
704.195	15745
704.951	15658
705.707	15599
706.463	15490
707.219	15436
707.974	15410
708.73	15401
709.486	15286
710.241	15247
710.997	15253
711.752	15090
712.508	15012
713.263	14632
714.018	14252
714.773	13898
715.528	13424
716.283	13039
717.038	12597
717.793	12229
718.548	11743
719.303	11259
720.057	10771
720.812	10354
721.566	10032
722.321	9739
723.075	9408
723.829	9213
724.583	8966
725.337	8811
726.091	8679
726.845	8597
727.599	8511
728.353	8458
729.106	8286
729.86	8219
730.614	8209
731.367	8252
732.12	8412
732.874	8304
733.627	8018
734.38	7633
735.133	7269
735.886	6934
736.639	6686
737.392	6577
738.145	6479
738.897	6409
739.65	6341
740.403	6249
741.155	6115
741.907	5829
742.66	5382
743.412	4835
744.164	4271
744.916	3526
745.668	2687
746.42	1827
747.172	1121
747.924	595
748.676	306
749.427	204
750.179	161
750.93	134
751.682	122
752.433	113
753.184	119
753.935	113
754.687	89
755.438	101
756.189	84
756.939	78
757.69	79
758.441	77
759.192	79
759.942	75
760.693	82
761.443	76
762.194	79
762.944	73
763.694	75
764.444	65
765.194	74
765.944	70
766.694	66
767.444	65
768.194	57
768.943	59
769.693	62
770.443	63
771.192	68
771.941	52
772.691	54
773.44	55
774.189	46
774.938	52
775.687	56
776.436	38
777.185	50
777.934	49
778.683	44
779.431	52
780.18	56
780.928	34
781.677	51
782.425	60
783.173	51
783.922	43
784.67	25
785.418	54
786.166	73
786.914	53
787.661	43
788.409	57
789.157	49
789.904	43
790.652	53
791.399	37
792.147	47
792.894	50
793.641	38
794.388	248
795.136	44
795.883	43
796.629	23
797.376	37
798.123	34
798.87	44
799.616	38
800.363	40
801.109	34
801.856	35
802.602	17
803.349	41
804.095	40
804.841	28
805.587	30
806.333	32
807.079	40
807.825	35
808.57	30
809.316	34
810.062	34
810.807	22
811.553	24
812.298	42
813.043	39
813.788	36
814.534	24
815.279	19
816.024	19
816.769	33
817.514	25
818.258	33
819.003	36
819.748	275
820.492	31
821.237	103
821.981	28
822.726	33
823.47	33
824.214	29
824.958	38
825.702	24
826.446	28
827.19	31
827.934	25
828.678	23
829.421	30
830.165	35
830.909	32
831.652	11
832.395	23
833.139	24
833.882	27
834.625	14
835.368	25
836.111	28
836.854	28
837.597	18
838.34	23
839.083	32
839.825	20
840.568	22
841.311	27
842.053	29
842.795	22
843.538	25
844.28	23
845.022	23
845.764	20
846.506	26
847.248	21
847.99	23
848.732	29
849.474	20
850.215	15
850.957	25
851.698	28
852.44	19
853.181	27
853.922	29
854.664	26
855.405	38
856.146	28
856.887	25
857.628	25
858.369	20
859.109	17
859.85	23
860.591	16
861.331	37
862.072	27
862.812	22
863.553	23
864.293	26
865.033	19
865.773	32
866.513	18
867.253	29
867.993	24
868.733	21
869.473	9
870.213	16
870.952	14
871.692	23
872.431	34
873.171	29
873.91	23
874.649	12
875.388	35
876.128	25
876.867	17
877.606	20
878.345	24
879.083	15
879.822	27
880.561	28
881.299	36
882.038	30
882.777	23
883.515	18
884.253	220
884.992	30
885.73	28
886.468	19
887.206	32
887.944	38
888.682	25
889.42	28
890.157	21
890.895	21
891.633	25
892.37	39
893.108	31
893.845	33
894.583	16
895.32	32
896.057	16
896.794	33
897.531	29
898.268	16
899.005	27
899.742	27
900.479	18
901.215	14
901.952	29
902.689	26
903.425	13
904.162	14
904.898	16
905.634	12
906.37	19
907.106	12
907.843	22
908.579	23
909.314	19
910.05	27
910.786	29
911.522	13
912.257	17
912.993	14
913.728	15
914.464	35
915.199	16
915.935	34
916.67	25
917.405	21
918.14	23
918.875	22
919.61	33
920.345	33
921.08	26
921.814	29
922.549	14
923.284	13
924.018	18
924.752	22
925.487	25
926.221	16
926.955	25
927.69	19
928.424	17
929.158	23
929.892	11
930.625	29
931.359	26
932.093	25
932.827	27
933.56	21
934.294	17
935.027	23
935.761	28
936.494	25
937.227	20
937.96	14
938.693	22
939.426	26
940.159	12
940.892	18
941.625	19
942.358	23
943.091	27
943.823	21
944.556	16
945.288	32
946.021	19
946.753	19
947.485	16
948.217	28
948.95	32
949.682	10
950.414	12
951.146	25
951.877	13
952.609	22
953.341	19
954.073	30
954.804	23
955.536	34
956.267	20
956.998	21
957.73	18
958.461	16
959.192	25
959.923	32
960.654	39
961.385	22
962.116	20
962.847	17
963.578	18
964.308	28
965.039	26
965.769	27
966.5	21
967.23	19
967.961	9
968.691	28
969.421	25
970.151	28
970.881	30
971.611	27
972.341	31
973.071	17
973.801	28
974.53	34
975.26	29
975.99	22
976.719	27
977.448	35
978.178	22
978.907	32
979.636	24
980.365	25
981.095	21
981.824	30
982.553	28
983.281	1
984.01	2
984.739	4
985.468	1
986.196	-2
986.925	46
987.653	28
988.382	28
989.11	21
989.838	27
990.566	21
991.295	9
992.023	38
992.751	17
993.478	19
994.206	31
994.934	14
995.662	-7
996.389	5
997.117	-2
997.845	-1
