Data from Sample_Bg_Subt2_009.txt Node
Date: Tue Aug 27 12:41:51 EDT 2019
User: wcc
Spectrometer: QEPB0759
Trigger mode: 0
Integration Time (sec): 1.000000E0
Scans to average: 1
Electric dark correction enabled: true
Nonlinearity correction enabled: false
Boxcar width: 0
XAxis mode: Wavelengths
Number of Pixels in Spectrum: 1044
>>>>>Begin Spectral Data<<<<<
197.938	14.88
198.749	25.88
199.559	21.88
200.369	15.88
201.179	13.88
201.988	23.88
202.798	25.88
203.608	23.88
204.417	23.88
205.227	20.88
206.036	13.88
206.846	24.88
207.655	18.88
208.464	16.88
209.273	23.88
210.082	30.88
210.891	22.88
211.7	18.88
212.508	19.88
213.317	16.88
214.125	23.88
214.934	31.88
215.742	27.88
216.55	25.88
217.359	25.88
218.167	25.88
218.975	29.88
219.782	28.88
220.59	15.88
221.398	12.88
222.206	22.88
223.013	26.88
223.82	25.88
224.628	16.88
225.435	27.88
226.242	30.88
227.049	14.88
227.856	14.88
228.663	30.88
229.47	15.88
230.277	27.88
231.083	26.88
231.89	15.88
232.696	26.88
233.502	22.88
234.309	22.88
235.115	26.88
235.921	16.88
236.727	26.88
237.533	18.88
238.339	33.88
239.144	20.88
239.95	24.88
240.756	26.88
241.561	29.88
242.366	20.88
243.172	18.88
243.977	17.88
244.782	28.88
245.587	19.88
246.392	22.88
247.197	-2.12
248.001	36.88
248.806	25.88
249.611	23.88
250.415	24.88
251.219	22.88
252.024	16.88
252.828	25.88
253.632	25.88
254.436	24.88
255.24	34.88
256.044	22.88
256.848	21.88
257.651	23.88
258.455	24.88
259.258	24.88
260.062	-221.12
260.865	18.88
261.668	28.88
262.471	5.88
263.274	25.88
264.077	6.88
264.88	19.88
265.683	33.88
266.486	11.88
267.288	26.88
268.091	23.88
268.893	25.88
269.696	31.88
270.498	26.88
271.3	20.88
272.102	25.88
272.904	27.88
273.706	26.88
274.508	7.88
275.309	36.88
276.111	30.88
276.913	24.88
277.714	25.88
278.515	20.88
279.317	20.88
280.118	30.88
280.919	29.88
281.72	15.88
282.521	28.88
283.322	12.88
284.122	15.88
284.923	23.88
285.724	11.88
286.524	35.88
287.325	32.88
288.125	8.88
288.925	33.88
289.725	9.88
290.525	20.88
291.325	30.88
292.125	10.88
292.925	24.88
293.724	25.88
294.524	21.88
295.324	25.88
296.123	18.88
296.922	17.88
297.722	38.88
298.521	28.88
299.32	23.88
300.119	19.88
300.918	24.88
301.716	24.88
302.515	30.88
303.314	25.88
304.112	17.88
304.911	10.88
305.709	24.88
306.507	20.88
307.306	16.88
308.104	30.88
308.902	22.88
309.7	26.88
310.498	32.88
311.295	14.88
312.093	23.88
312.891	22.88
313.688	30.88
314.485	19.88
315.283	32.88
316.08	28.88
316.877	31.88
317.674	6.88
318.471	41.88
319.268	17.88
320.065	21.88
320.862	21.88
321.658	27.88
322.455	27.88
323.251	14.88
324.047	28.88
324.844	23.88
325.64	24.88
326.436	28.88
327.232	19.88
328.028	21.88
328.824	28.88
329.62	20.88
330.415	18.88
331.211	22.88
332.006	18.88
332.802	30.88
333.597	31.88
334.392	23.88
335.187	26.88
335.982	30.88
336.777	23.88
337.572	25.88
338.367	30.88
339.162	28.88
339.956	23.88
340.751	18.88
341.545	29.88
342.34	18.88
343.134	15.88
343.928	27.88
344.722	19.88
345.516	19.88
346.31	11.88
347.104	21.88
347.898	32.88
348.691	17.88
349.485	18.88
350.278	18.88
351.072	37.88
351.865	190.88
352.658	24.88
353.452	16.88
354.245	18.88
355.038	24.88
355.83	35.88
356.623	27.88
357.416	20.88
358.209	26.88
359.001	15.88
359.794	23.88
360.586	37.88
361.378	25.88
362.17	7.88
362.963	16.88
363.755	20.88
364.546	15.88
365.338	27.88
366.13	27.88
366.922	14.88
367.713	28.88
368.505	28.88
369.296	17.88
370.088	32.88
370.879	19.88
371.67	29.88
372.461	14.88
373.252	10.88
374.043	24.88
374.834	11.88
375.625	26.88
376.415	15.88
377.206	18.88
377.996	29.88
378.787	30.88
379.577	20.88
380.367	17.88
381.157	14.88
381.947	30.88
382.737	14.88
383.527	17.88
384.317	19.88
385.107	20.88
385.896	5.88
386.686	29.88
387.475	34.88
388.265	21.88
389.054	35.88
389.843	3.88
390.632	23.88
391.421	20.88
392.21	24.88
392.999	13.88
393.788	24.88
394.576	21.88
395.365	22.88
396.154	19.88
396.942	28.88
397.73	25.88
398.519	19.88
399.307	14.88
400.095	25.88
400.883	8.88
401.671	22.88
402.459	18.88
403.246	7.88
404.034	32.88
404.822	20.88
405.609	24.88
406.396	15.88
407.184	19.88
407.971	20.88
408.758	17.88
409.545	25.88
410.332	32.88
411.119	36.88
411.906	32.88
412.693	26.88
413.479	34.88
414.266	27.88
415.052	20.88
415.839	28.88
416.625	12.88
417.411	34.88
418.197	25.88
418.983	33.88
419.769	22.88
420.555	25.88
421.341	30.88
422.127	25.88
422.912	37.88
423.698	8.88
424.483	6.88
425.269	36.88
426.054	11.88
426.839	29.88
427.624	20.88
428.409	32.88
429.194	21.88
429.979	30.88
430.764	31.88
431.549	37.88
432.333	30.88
433.118	17.88
433.902	23.88
434.687	19.88
435.471	18.88
436.255	25.88
437.039	31.88
437.823	25.88
438.607	31.88
439.391	22.88
440.175	6.88
440.958	25.88
441.742	26.88
442.526	23.88
443.309	19.88
444.092	32.88
444.876	33.88
445.659	29.88
446.442	25.88
447.225	22.88
448.008	30.88
448.791	33.88
449.573	25.88
450.356	32.88
451.139	28.88
451.921	28.88
452.704	28.88
453.486	39.88
454.268	31.88
455.05	27.88
455.833	25.88
456.615	31.88
457.396	27.88
458.178	21.88
458.96	29.88
459.742	35.88
460.523	31.88
461.305	24.88
462.086	37.88
462.868	44.88
463.649	46.88
464.43	35.88
465.211	30.88
465.992	29.88
466.773	33.88
467.554	24.88
468.335	23.88
469.115	31.88
469.896	21.88
470.676	37.88
471.457	18.88
472.237	20.88
473.018	14.88
473.798	29.88
474.578	23.88
475.358	28.88
476.138	28.88
476.918	32.88
477.697	16.88
478.477	36.88
479.257	13.88
480.036	17.88
480.816	23.88
481.595	28.88
482.374	8.88
483.153	35.88
483.932	22.88
484.711	24.88
485.49	26.88
486.269	9.88
487.048	14.88
487.827	19.88
488.605	17.88
489.384	16.88
490.162	1.88
490.941	13.88
491.719	16.88
492.497	18.88
493.275	21.88
494.053	30.88
494.831	15.88
495.609	27.88
496.387	22.88
497.164	10.88
497.942	22.88
498.72	29.88
499.497	14.88
500.274	23.88
501.052	33.88
501.829	21.88
502.606	17.88
503.383	25.88
504.16	23.88
504.937	37.88
505.714	31.88
506.49	26.88
507.267	22.88
508.043	31.88
508.82	24.88
509.596	18.88
510.373	6.88
511.149	40.88
511.925	15.88
512.701	1.88
513.477	29.88
514.253	5.88
515.029	29.88
515.804	27.88
516.58	27.88
517.356	12.88
518.131	30.88
518.906	16.88
519.682	14.88
520.457	17.88
521.232	18.88
522.007	24.88
522.782	13.88
523.557	17.88
524.332	11.88
525.107	23.88
525.881	29.88
526.656	15.88
527.43	31.88
528.205	24.88
528.979	22.88
529.753	26.88
530.527	31.88
531.302	22.88
532.076	23.88
532.849	19.88
533.623	19.88
534.397	14.88
535.171	31.88
535.944	33.88
536.718	21.88
537.491	22.88
538.265	19.88
539.038	27.88
539.811	10.88
540.584	16.88
541.357	15.88
542.13	30.88
542.903	17.88
543.676	29.88
544.449	16.88
545.221	-0.12
545.994	18.88
546.766	9.88
547.539	9.88
548.311	25.88
549.083	13.88
549.855	16.88
550.627	27.88
551.399	26.88
552.171	22.88
552.943	30.88
553.715	21.88
554.486	37.88
555.258	6.88
556.029	28.88
556.801	10.88
557.572	18.88
558.343	24.88
559.114	15.88
559.886	18.88
560.657	17.88
561.427	22.88
562.198	21.88
562.969	20.88
563.74	21.88
564.51	14.88
565.281	23.88
566.051	20.88
566.822	24.88
567.592	22.88
568.362	13.88
569.132	22.88
569.902	35.88
570.672	22.88
571.442	18.88
572.212	25.88
572.982	22.88
573.751	24.88
574.521	28.88
575.29	15.88
576.06	26.88
576.829	9.88
577.598	22.88
578.367	11.88
579.136	9.88
579.905	9.88
580.674	27.88
581.443	27.88
582.212	14.88
582.981	31.88
583.749	6.88
584.518	25.88
585.286	8.88
586.054	16.88
586.823	32.88
587.591	0.88
588.359	29.88
589.127	21.88
589.895	18.88
590.663	23.88
591.431	18.88
592.198	27.88
592.966	26.88
593.734	33.88
594.501	21.88
595.268	26.88
596.036	34.88
596.803	24.88
597.57	20.88
598.337	35.88
599.104	30.88
599.871	22.88
600.638	18.88
601.405	29.88
602.171	28.88
602.938	25.88
603.704	37.88
604.471	13.88
605.237	33.88
606.004	17.88
606.77	30.88
607.536	24.88
608.302	17.88
609.068	41.88
609.834	21.88
610.599	16.88
611.365	35.88
612.131	39.88
612.896	31.88
613.662	36.88
614.427	34.88
615.193	36.88
615.958	25.88
616.723	23.88
617.488	41.88
618.253	33.88
619.018	36.88
619.783	30.88
620.548	38.88
621.312	44.88
622.077	44.88
622.842	42.88
623.606	41.88
624.37	28.88
625.135	22.88
625.899	50.88
626.663	43.88
627.427	45.88
628.191	32.88
628.955	47.88
629.719	44.88
630.483	51.88
631.246	41.88
632.01	29.88
632.773	50.88
633.537	39.88
634.3	44.88
635.063	21.88
635.827	28.88
636.59	23.88
637.353	26.88
638.116	57.88
638.879	44.88
639.641	39.88
640.404	50.88
641.167	42.88
641.929	40.88
642.692	27.88
643.454	40.88
644.216	32.88
644.979	31.88
645.741	42.88
646.503	38.88
647.265	52.88
648.027	38.88
648.789	35.88
649.551	43.88
650.312	30.88
651.074	42.88
651.835	44.88
652.597	44.88
653.358	44.88
654.12	44.88
654.881	41.88
655.642	38.88
656.403	37.88
657.164	47.88
657.925	44.88
658.686	32.88
659.447	45.88
660.207	42.88
660.968	56.88
661.728	40.88
662.489	45.88
663.249	52.88
664.01	43.88
664.77	30.88
665.53	44.88
666.29	43.88
667.05	54.88
667.81	52.88
668.57	59.88
669.329	42.88
670.089	41.88
670.849	42.88
671.608	47.88
672.368	46.88
673.127	54.88
673.886	46.88
674.646	37.88
675.405	44.88
676.164	46.88
676.923	47.88
677.682	34.88
678.44	39.88
679.199	43.88
679.958	79.88
680.717	31.88
681.475	40.88
682.233	59.88
682.992	40.88
683.75	43.88
684.508	45.88
685.266	39.88
686.024	56.88
686.782	46.88
687.54	44.88
688.298	38.88
689.056	44.88
689.814	45.88
690.571	47.88
691.329	50.88
692.086	47.88
692.843	34.88
693.601	48.88
694.358	36.88
695.115	52.88
695.872	51.88
696.629	41.88
697.386	38.88
698.143	45.88
698.9	39.88
699.656	36.88
700.413	35.88
701.169	46.88
701.926	43.88
702.682	34.88
703.438	48.88
704.195	28.88
704.951	33.88
705.707	30.88
706.463	36.88
707.219	30.88
707.974	38.88
708.73	33.88
709.486	41.88
710.241	30.88
710.997	36.88
711.752	50.88
712.508	37.88
713.263	27.88
714.018	29.88
714.773	52.88
715.528	28.88
716.283	33.88
717.038	43.88
717.793	31.88
718.548	24.88
719.303	42.88
720.057	31.88
720.812	32.88
721.566	38.88
722.321	38.88
723.075	33.88
723.829	32.88
724.583	19.88
725.337	39.88
726.091	12.88
726.845	34.88
727.599	30.88
728.353	38.88
729.106	26.88
729.86	25.88
730.614	22.88
731.367	-183.12
732.12	15.88
732.874	35.88
733.627	34.88
734.38	40.88
735.133	23.88
735.886	19.88
736.639	25.88
737.392	25.88
738.145	29.88
738.897	24.88
739.65	25.88
740.403	26.88
741.155	38.88
741.907	17.88
742.66	25.88
743.412	25.88
744.164	38.88
744.916	41.88
745.668	26.88
746.42	43.88
747.172	38.88
747.924	26.88
748.676	18.88
749.427	26.88
750.179	25.88
750.93	37.88
751.682	32.88
752.433	24.88
753.184	32.88
753.935	30.88
754.687	19.88
755.438	28.88
756.189	22.88
756.939	28.88
757.69	26.88
758.441	26.88
759.192	24.88
759.942	26.88
760.693	30.88
761.443	40.88
762.194	28.88
762.944	22.88
763.694	27.88
764.444	20.88
765.194	42.88
765.944	34.88
766.694	21.88
767.444	26.88
768.194	32.88
768.943	15.88
769.693	8.88
770.443	26.88
771.192	34.88
771.941	21.88
772.691	23.88
773.44	27.88
774.189	22.88
774.938	16.88
775.687	22.88
776.436	15.88
777.185	25.88
777.934	19.88
778.683	17.88
779.431	28.88
780.18	35.88
780.928	15.88
781.677	12.88
782.425	25.88
783.173	28.88
783.922	17.88
784.67	10.88
785.418	26.88
786.166	33.88
786.914	24.88
787.661	23.88
788.409	26.88
789.157	19.88
789.904	11.88
790.652	18.88
791.399	17.88
792.147	26.88
792.894	5.88
793.641	25.88
794.388	151.88
795.136	26.88
795.883	32.88
796.629	21.88
797.376	27.88
798.123	24.88
798.87	22.88
799.616	17.88
800.363	27.88
801.109	29.88
801.856	22.88
802.602	6.88
803.349	39.88
804.095	33.88
804.841	22.88
805.587	31.88
806.333	32.88
807.079	34.88
807.825	34.88
808.57	23.88
809.316	29.88
810.062	28.88
810.807	29.88
811.553	25.88
812.298	23.88
813.043	36.88
813.788	24.88
814.534	12.88
815.279	15.88
816.024	23.88
816.769	24.88
817.514	24.88
818.258	23.88
819.003	30.88
819.748	197.88
820.492	24.88
821.237	92.88
821.981	22.88
822.726	21.88
823.47	18.88
824.214	16.88
824.958	27.88
825.702	24.88
826.446	29.88
827.19	21.88
827.934	20.88
828.678	13.88
829.421	18.88
830.165	20.88
830.909	26.88
831.652	13.88
832.395	27.88
833.139	15.88
833.882	36.88
834.625	15.88
835.368	22.88
836.111	15.88
836.854	20.88
837.597	27.88
838.34	32.88
839.083	27.88
839.825	23.88
840.568	6.88
841.311	16.88
842.053	23.88
842.795	28.88
843.538	16.88
844.28	25.88
845.022	2.88
845.764	10.88
846.506	4.88
847.248	17.88
847.99	17.88
848.732	31.88
849.474	21.88
850.215	21.88
850.957	15.88
851.698	20.88
852.44	15.88
853.181	36.88
853.922	25.88
854.664	22.88
855.405	25.88
856.146	26.88
856.887	24.88
857.628	24.88
858.369	-2.12
859.109	22.88
859.85	14.88
860.591	13.88
861.331	37.88
862.072	31.88
862.812	18.88
863.553	18.88
864.293	22.88
865.033	16.88
865.773	21.88
866.513	22.88
867.253	26.88
867.993	9.88
868.733	26.88
869.473	12.88
870.213	20.88
870.952	35.88
871.692	17.88
872.431	30.88
873.171	18.88
873.91	28.88
874.649	15.88
875.388	38.88
876.128	20.88
876.867	13.88
877.606	21.88
878.345	28.88
879.083	21.88
879.822	25.88
880.561	28.88
881.299	30.88
882.038	28.88
882.777	20.88
883.515	25.88
884.253	217.88
884.992	23.88
885.73	27.88
886.468	24.88
887.206	33.88
887.944	41.88
888.682	25.88
889.42	36.88
890.157	21.88
890.895	27.88
891.633	5.88
892.37	30.88
893.108	24.88
893.845	22.88
894.583	18.88
895.32	30.88
896.057	25.88
896.794	25.88
897.531	31.88
898.268	18.88
899.005	26.88
899.742	41.88
900.479	17.88
901.215	16.88
901.952	30.88
902.689	17.88
903.425	23.88
904.162	20.88
904.898	13.88
905.634	11.88
906.37	19.88
907.106	17.88
907.843	24.88
908.579	16.88
909.314	19.88
910.05	28.88
910.786	35.88
911.522	12.88
912.257	12.88
912.993	14.88
913.728	17.88
914.464	31.88
915.199	16.88
915.935	32.88
916.67	20.88
917.405	23.88
918.14	16.88
918.875	26.88
919.61	30.88
920.345	33.88
921.08	37.88
921.814	19.88
922.549	15.88
923.284	34.88
924.018	17.88
924.752	18.88
925.487	16.88
926.221	16.88
926.955	26.88
927.69	15.88
928.424	27.88
929.158	25.88
929.892	13.88
930.625	23.88
931.359	24.88
932.093	17.88
932.827	17.88
933.56	31.88
934.294	24.88
935.027	23.88
935.761	28.88
936.494	33.88
937.227	14.88
937.96	14.88
938.693	24.88
939.426	27.88
940.159	19.88
940.892	29.88
941.625	27.88
942.358	18.88
943.091	23.88
943.823	24.88
944.556	16.88
945.288	26.88
946.021	34.88
946.753	24.88
947.485	24.88
948.217	16.88
948.95	25.88
949.682	3.88
950.414	22.88
951.146	19.88
951.877	24.88
952.609	31.88
953.341	17.88
954.073	31.88
954.804	20.88
955.536	33.88
956.267	10.88
956.998	5.88
957.73	5.88
958.461	20.88
959.192	25.88
959.923	21.88
960.654	30.88
961.385	12.88
962.116	12.88
962.847	23.88
963.578	22.88
964.308	29.88
965.039	12.88
965.769	18.88
966.5	27.88
967.23	14.88
967.961	10.88
968.691	39.88
969.421	23.88
970.151	24.88
970.881	30.88
971.611	30.88
972.341	20.88
973.071	18.88
973.801	34.88
974.53	27.88
975.26	15.88
975.99	9.88
976.719	17.88
977.448	23.88
978.178	20.88
978.907	33.88
979.636	30.88
980.365	24.88
981.095	9.88
981.824	29.88
982.553	22.88
983.281	10.88
984.01	3.88
984.739	-3.12
985.468	4.88
986.196	-11.12
986.925	39.88
987.653	31.88
988.382	-1.12
989.11	15.88
989.838	27.88
990.566	15.88
991.295	18.88
992.023	30.88
992.751	25.88
993.478	9.88
994.206	32.88
994.934	18.88
995.662	-1.12
996.389	-2.12
997.117	-2.12
997.845	10.88
