Data from Sample_Bg_Subt2_008.txt Node
Date: Tue Aug 27 12:41:50 EDT 2019
User: wcc
Spectrometer: QEPB0759
Trigger mode: 0
Integration Time (sec): 1.000000E0
Scans to average: 1
Electric dark correction enabled: true
Nonlinearity correction enabled: false
Boxcar width: 0
XAxis mode: Wavelengths
Number of Pixels in Spectrum: 1044
>>>>>Begin Spectral Data<<<<<
197.938	30.75
198.749	27.75
199.559	18.75
200.369	23.75
201.179	17.75
201.988	31.75
202.798	35.75
203.608	15.75
204.417	21.75
205.227	20.75
206.036	9.75
206.846	23.75
207.655	19.75
208.464	20.75
209.273	23.75
210.082	19.75
210.891	29.75
211.7	24.75
212.508	28.75
213.317	22.75
214.125	19.75
214.934	27.75
215.742	19.75
216.55	29.75
217.359	25.75
218.167	27.75
218.975	29.75
219.782	27.75
220.59	14.75
221.398	13.75
222.206	28.75
223.013	34.75
223.82	29.75
224.628	21.75
225.435	23.75
226.242	11.75
227.049	9.75
227.856	16.75
228.663	39.75
229.47	22.75
230.277	31.75
231.083	24.75
231.89	17.75
232.696	30.75
233.502	25.75
234.309	21.75
235.115	28.75
235.921	8.75
236.727	23.75
237.533	22.75
238.339	19.75
239.144	26.75
239.95	26.75
240.756	29.75
241.561	14.75
242.366	28.75
243.172	28.75
243.977	18.75
244.782	13.75
245.587	20.75
246.392	30.75
247.197	4.75
248.001	30.75
248.806	30.75
249.611	19.75
250.415	18.75
251.219	27.75
252.024	15.75
252.828	15.75
253.632	18.75
254.436	31.75
255.24	31.75
256.044	26.75
256.848	19.75
257.651	15.75
258.455	36.75
259.258	21.75
260.062	-299.25
260.865	15.75
261.668	12.75
262.471	13.75
263.274	13.75
264.077	17.75
264.88	7.75
265.683	21.75
266.486	9.75
267.288	23.75
268.091	27.75
268.893	25.75
269.696	23.75
270.498	30.75
271.3	24.75
272.102	13.75
272.904	22.75
273.706	28.75
274.508	20.75
275.309	38.75
276.111	27.75
276.913	25.75
277.714	29.75
278.515	22.75
279.317	30.75
280.118	28.75
280.919	15.75
281.72	22.75
282.521	35.75
283.322	31.75
284.122	16.75
284.923	11.75
285.724	22.75
286.524	33.75
287.325	32.75
288.125	8.75
288.925	24.75
289.725	17.75
290.525	20.75
291.325	20.75
292.125	12.75
292.925	17.75
293.724	24.75
294.524	19.75
295.324	18.75
296.123	23.75
296.922	22.75
297.722	23.75
298.521	32.75
299.32	26.75
300.119	21.75
300.918	22.75
301.716	19.75
302.515	17.75
303.314	29.75
304.112	23.75
304.911	16.75
305.709	29.75
306.507	17.75
307.306	19.75
308.104	24.75
308.902	21.75
309.7	35.75
310.498	22.75
311.295	21.75
312.093	36.75
312.891	25.75
313.688	30.75
314.485	14.75
315.283	32.75
316.08	20.75
316.877	30.75
317.674	13.75
318.471	31.75
319.268	26.75
320.065	21.75
320.862	25.75
321.658	27.75
322.455	34.75
323.251	15.75
324.047	25.75
324.844	27.75
325.64	11.75
326.436	16.75
327.232	19.75
328.028	22.75
328.824	38.75
329.62	27.75
330.415	26.75
331.211	15.75
332.006	22.75
332.802	37.75
333.597	31.75
334.392	25.75
335.187	17.75
335.982	21.75
336.777	29.75
337.572	34.75
338.367	23.75
339.162	24.75
339.956	14.75
340.751	20.75
341.545	36.75
342.34	11.75
343.134	28.75
343.928	25.75
344.722	28.75
345.516	27.75
346.31	14.75
347.104	35.75
347.898	31.75
348.691	22.75
349.485	13.75
350.278	27.75
351.072	41.75
351.865	144.75
352.658	22.75
353.452	9.75
354.245	21.75
355.038	15.75
355.83	22.75
356.623	24.75
357.416	26.75
358.209	23.75
359.001	19.75
359.794	33.75
360.586	39.75
361.378	18.75
362.17	9.75
362.963	15.75
363.755	14.75
364.546	20.75
365.338	29.75
366.13	23.75
366.922	25.75
367.713	30.75
368.505	32.75
369.296	19.75
370.088	19.75
370.879	28.75
371.67	20.75
372.461	19.75
373.252	10.75
374.043	21.75
374.834	23.75
375.625	39.75
376.415	11.75
377.206	13.75
377.996	33.75
378.787	16.75
379.577	23.75
380.367	34.75
381.157	18.75
381.947	16.75
382.737	5.75
383.527	21.75
384.317	24.75
385.107	25.75
385.896	6.75
386.686	11.75
387.475	27.75
388.265	21.75
389.054	33.75
389.843	18.75
390.632	25.75
391.421	21.75
392.21	20.75
392.999	10.75
393.788	29.75
394.576	13.75
395.365	23.75
396.154	18.75
396.942	27.75
397.73	22.75
398.519	32.75
399.307	22.75
400.095	25.75
400.883	9.75
401.671	27.75
402.459	18.75
403.246	17.75
404.034	25.75
404.822	23.75
405.609	25.75
406.396	21.75
407.184	20.75
407.971	25.75
408.758	27.75
409.545	19.75
410.332	29.75
411.119	41.75
411.906	19.75
412.693	23.75
413.479	27.75
414.266	27.75
415.052	27.75
415.839	26.75
416.625	19.75
417.411	29.75
418.197	22.75
418.983	28.75
419.769	32.75
420.555	15.75
421.341	29.75
422.127	37.75
422.912	27.75
423.698	14.75
424.483	15.75
425.269	37.75
426.054	17.75
426.839	26.75
427.624	13.75
428.409	36.75
429.194	34.75
429.979	33.75
430.764	23.75
431.549	39.75
432.333	40.75
433.118	5.75
433.902	17.75
434.687	15.75
435.471	14.75
436.255	13.75
437.039	32.75
437.823	25.75
438.607	26.75
439.391	24.75
440.175	9.75
440.958	27.75
441.742	24.75
442.526	24.75
443.309	30.75
444.092	38.75
444.876	35.75
445.659	28.75
446.442	31.75
447.225	21.75
448.008	31.75
448.791	32.75
449.573	39.75
450.356	32.75
451.139	16.75
451.921	21.75
452.704	21.75
453.486	40.75
454.268	42.75
455.05	18.75
455.833	37.75
456.615	27.75
457.396	29.75
458.178	22.75
458.96	26.75
459.742	38.75
460.523	30.75
461.305	25.75
462.086	33.75
462.868	40.75
463.649	19.75
464.43	19.75
465.211	31.75
465.992	27.75
466.773	45.75
467.554	23.75
468.335	20.75
469.115	30.75
469.896	9.75
470.676	16.75
471.457	24.75
472.237	36.75
473.018	12.75
473.798	41.75
474.578	35.75
475.358	23.75
476.138	26.75
476.918	28.75
477.697	11.75
478.477	25.75
479.257	18.75
480.036	14.75
480.816	16.75
481.595	38.75
482.374	11.75
483.153	30.75
483.932	22.75
484.711	22.75
485.49	25.75
486.269	19.75
487.048	20.75
487.827	17.75
488.605	25.75
489.384	13.75
490.162	11.75
490.941	6.75
491.719	1.75
492.497	19.75
493.275	14.75
494.053	21.75
494.831	11.75
495.609	18.75
496.387	18.75
497.164	15.75
497.942	20.75
498.72	17.75
499.497	32.75
500.274	22.75
501.052	22.75
501.829	35.75
502.606	16.75
503.383	13.75
504.16	30.75
504.937	34.75
505.714	31.75
506.49	34.75
507.267	13.75
508.043	13.75
508.82	28.75
509.596	22.75
510.373	13.75
511.149	25.75
511.925	20.75
512.701	7.75
513.477	23.75
514.253	12.75
515.029	15.75
515.804	28.75
516.58	24.75
517.356	23.75
518.131	29.75
518.906	21.75
519.682	9.75
520.457	29.75
521.232	20.75
522.007	20.75
522.782	20.75
523.557	13.75
524.332	18.75
525.107	38.75
525.881	26.75
526.656	22.75
527.43	30.75
528.205	27.75
528.979	17.75
529.753	30.75
530.527	24.75
531.302	18.75
532.076	13.75
532.849	15.75
533.623	19.75
534.397	17.75
535.171	26.75
535.944	31.75
536.718	10.75
537.491	19.75
538.265	4.75
539.038	25.75
539.811	27.75
540.584	6.75
541.357	14.75
542.13	40.75
542.903	13.75
543.676	27.75
544.449	11.75
545.221	7.75
545.994	10.75
546.766	22.75
547.539	9.75
548.311	16.75
549.083	17.75
549.855	15.75
550.627	29.75
551.399	23.75
552.171	24.75
552.943	30.75
553.715	23.75
554.486	23.75
555.258	6.75
556.029	17.75
556.801	20.75
557.572	30.75
558.343	27.75
559.114	13.75
559.886	27.75
560.657	17.75
561.427	30.75
562.198	22.75
562.969	15.75
563.74	31.75
564.51	16.75
565.281	17.75
566.051	22.75
566.822	19.75
567.592	18.75
568.362	20.75
569.132	22.75
569.902	30.75
570.672	26.75
571.442	26.75
572.212	20.75
572.982	12.75
573.751	16.75
574.521	33.75
575.29	17.75
576.06	25.75
576.829	5.75
577.598	28.75
578.367	20.75
579.136	10.75
579.905	26.75
580.674	27.75
581.443	27.75
582.212	16.75
582.981	16.75
583.749	13.75
584.518	27.75
585.286	18.75
586.054	35.75
586.823	27.75
587.591	4.75
588.359	21.75
589.127	24.75
589.895	23.75
590.663	20.75
591.431	26.75
592.198	28.75
592.966	26.75
593.734	24.75
594.501	23.75
595.268	37.75
596.036	34.75
596.803	24.75
597.57	29.75
598.337	11.75
599.104	34.75
599.871	23.75
600.638	31.75
601.405	22.75
602.171	25.75
602.938	31.75
603.704	27.75
604.471	27.75
605.237	30.75
606.004	27.75
606.77	32.75
607.536	17.75
608.302	25.75
609.068	35.75
609.834	24.75
610.599	34.75
611.365	17.75
612.131	38.75
612.896	31.75
613.662	27.75
614.427	28.75
615.193	28.75
615.958	20.75
616.723	46.75
617.488	36.75
618.253	22.75
619.018	33.75
619.783	23.75
620.548	35.75
621.312	39.75
622.077	50.75
622.842	42.75
623.606	39.75
624.37	21.75
625.135	18.75
625.899	47.75
626.663	43.75
627.427	44.75
628.191	32.75
628.955	42.75
629.719	40.75
630.483	44.75
631.246	42.75
632.01	28.75
632.773	45.75
633.537	40.75
634.3	37.75
635.063	19.75
635.827	31.75
636.59	30.75
637.353	32.75
638.116	40.75
638.879	33.75
639.641	37.75
640.404	37.75
641.167	44.75
641.929	40.75
642.692	41.75
643.454	41.75
644.216	40.75
644.979	36.75
645.741	33.75
646.503	39.75
647.265	33.75
648.027	35.75
648.789	35.75
649.551	37.75
650.312	34.75
651.074	41.75
651.835	38.75
652.597	41.75
653.358	27.75
654.12	49.75
654.881	34.75
655.642	39.75
656.403	35.75
657.164	42.75
657.925	56.75
658.686	50.75
659.447	49.75
660.207	47.75
660.968	41.75
661.728	39.75
662.489	45.75
663.249	49.75
664.01	27.75
664.77	28.75
665.53	42.75
666.29	38.75
667.05	60.75
667.81	44.75
668.57	46.75
669.329	39.75
670.089	39.75
670.849	48.75
671.608	55.75
672.368	43.75
673.127	45.75
673.886	40.75
674.646	33.75
675.405	45.75
676.164	41.75
676.923	46.75
677.682	49.75
678.44	40.75
679.199	43.75
679.958	73.75
680.717	43.75
681.475	45.75
682.233	44.75
682.992	39.75
683.75	41.75
684.508	37.75
685.266	49.75
686.024	40.75
686.782	36.75
687.54	41.75
688.298	43.75
689.056	30.75
689.814	45.75
690.571	61.75
691.329	49.75
692.086	50.75
692.843	33.75
693.601	34.75
694.358	40.75
695.115	44.75
695.872	42.75
696.629	44.75
697.386	40.75
698.143	50.75
698.9	37.75
699.656	37.75
700.413	35.75
701.169	45.75
701.926	43.75
702.682	49.75
703.438	39.75
704.195	40.75
704.951	39.75
705.707	29.75
706.463	36.75
707.219	30.75
707.974	39.75
708.73	29.75
709.486	36.75
710.241	38.75
710.997	36.75
711.752	40.75
712.508	30.75
713.263	32.75
714.018	34.75
714.773	49.75
715.528	32.75
716.283	37.75
717.038	40.75
717.793	45.75
718.548	29.75
719.303	41.75
720.057	34.75
720.812	25.75
721.566	31.75
722.321	32.75
723.075	38.75
723.829	30.75
724.583	23.75
725.337	32.75
726.091	23.75
726.845	32.75
727.599	30.75
728.353	38.75
729.106	41.75
729.86	38.75
730.614	19.75
731.367	-71.25
732.12	40.75
732.874	40.75
733.627	38.75
734.38	34.75
735.133	21.75
735.886	26.75
736.639	28.75
737.392	25.75
738.145	27.75
738.897	27.75
739.65	23.75
740.403	37.75
741.155	32.75
741.907	32.75
742.66	28.75
743.412	22.75
744.164	34.75
744.916	35.75
745.668	22.75
746.42	42.75
747.172	31.75
747.924	19.75
748.676	26.75
749.427	22.75
750.179	11.75
750.93	23.75
751.682	22.75
752.433	30.75
753.184	34.75
753.935	31.75
754.687	25.75
755.438	19.75
756.189	30.75
756.939	29.75
757.69	25.75
758.441	38.75
759.192	25.75
759.942	31.75
760.693	30.75
761.443	32.75
762.194	36.75
762.944	12.75
763.694	28.75
764.444	16.75
765.194	36.75
765.944	18.75
766.694	20.75
767.444	23.75
768.194	22.75
768.943	20.75
769.693	20.75
770.443	28.75
771.192	28.75
771.941	16.75
772.691	23.75
773.44	20.75
774.189	10.75
774.938	19.75
775.687	23.75
776.436	14.75
777.185	30.75
777.934	24.75
778.683	15.75
779.431	29.75
780.18	31.75
780.928	23.75
781.677	26.75
782.425	18.75
783.173	30.75
783.922	16.75
784.67	-1.25
785.418	28.75
786.166	32.75
786.914	21.75
787.661	11.75
788.409	20.75
789.157	30.75
789.904	10.75
790.652	3.75
791.399	20.75
792.147	30.75
792.894	16.75
793.641	15.75
794.388	305.75
795.136	13.75
795.883	22.75
796.629	12.75
797.376	27.75
798.123	14.75
798.87	23.75
799.616	18.75
800.363	26.75
801.109	17.75
801.856	24.75
802.602	17.75
803.349	37.75
804.095	27.75
804.841	19.75
805.587	17.75
806.333	24.75
807.079	26.75
807.825	19.75
808.57	17.75
809.316	34.75
810.062	20.75
810.807	24.75
811.553	31.75
812.298	28.75
813.043	44.75
813.788	21.75
814.534	20.75
815.279	23.75
816.024	19.75
816.769	25.75
817.514	22.75
818.258	30.75
819.003	27.75
819.748	565.75
820.492	26.75
821.237	115.75
821.981	26.75
822.726	29.75
823.47	17.75
824.214	25.75
824.958	21.75
825.702	24.75
826.446	22.75
827.19	8.75
827.934	9.75
828.678	16.75
829.421	28.75
830.165	29.75
830.909	16.75
831.652	15.75
832.395	26.75
833.139	26.75
833.882	34.75
834.625	18.75
835.368	26.75
836.111	7.75
836.854	32.75
837.597	12.75
838.34	25.75
839.083	25.75
839.825	16.75
840.568	10.75
841.311	18.75
842.053	23.75
842.795	15.75
843.538	22.75
844.28	18.75
845.022	10.75
845.764	12.75
846.506	10.75
847.248	28.75
847.99	14.75
848.732	28.75
849.474	17.75
850.215	18.75
850.957	22.75
851.698	22.75
852.44	19.75
853.181	26.75
853.922	16.75
854.664	27.75
855.405	29.75
856.146	33.75
856.887	16.75
857.628	28.75
858.369	10.75
859.109	21.75
859.85	22.75
860.591	14.75
861.331	36.75
862.072	28.75
862.812	12.75
863.553	17.75
864.293	33.75
865.033	17.75
865.773	30.75
866.513	11.75
867.253	22.75
867.993	16.75
868.733	14.75
869.473	18.75
870.213	24.75
870.952	21.75
871.692	14.75
872.431	23.75
873.171	8.75
873.91	17.75
874.649	13.75
875.388	31.75
876.128	28.75
876.867	21.75
877.606	27.75
878.345	26.75
879.083	19.75
879.822	8.75
880.561	34.75
881.299	40.75
882.038	25.75
882.777	21.75
883.515	21.75
884.253	166.75
884.992	26.75
885.73	28.75
886.468	25.75
887.206	29.75
887.944	41.75
888.682	27.75
889.42	32.75
890.157	19.75
890.895	26.75
891.633	24.75
892.37	27.75
893.108	36.75
893.845	25.75
894.583	17.75
895.32	22.75
896.057	16.75
896.794	25.75
897.531	19.75
898.268	17.75
899.005	31.75
899.742	28.75
900.479	23.75
901.215	18.75
901.952	26.75
902.689	20.75
903.425	20.75
904.162	15.75
904.898	21.75
905.634	20.75
906.37	32.75
907.106	14.75
907.843	18.75
908.579	17.75
909.314	8.75
910.05	33.75
910.786	31.75
911.522	22.75
912.257	11.75
912.993	23.75
913.728	7.75
914.464	34.75
915.199	20.75
915.935	29.75
916.67	20.75
917.405	14.75
918.14	19.75
918.875	27.75
919.61	40.75
920.345	27.75
921.08	26.75
921.814	20.75
922.549	15.75
923.284	31.75
924.018	20.75
924.752	25.75
925.487	29.75
926.221	15.75
926.955	21.75
927.69	17.75
928.424	21.75
929.158	25.75
929.892	9.75
930.625	20.75
931.359	21.75
932.093	28.75
932.827	36.75
933.56	28.75
934.294	15.75
935.027	20.75
935.761	29.75
936.494	26.75
937.227	27.75
937.96	24.75
938.693	22.75
939.426	21.75
940.159	13.75
940.892	24.75
941.625	10.75
942.358	19.75
943.091	26.75
943.823	24.75
944.556	10.75
945.288	37.75
946.021	22.75
946.753	19.75
947.485	22.75
948.217	19.75
948.95	29.75
949.682	19.75
950.414	26.75
951.146	32.75
951.877	18.75
952.609	28.75
953.341	21.75
954.073	29.75
954.804	24.75
955.536	29.75
956.267	15.75
956.998	9.75
957.73	0.75
958.461	16.75
959.192	16.75
959.923	22.75
960.654	32.75
961.385	15.75
962.116	18.75
962.847	23.75
963.578	21.75
964.308	19.75
965.039	20.75
965.769	6.75
966.5	27.75
967.23	26.75
967.961	15.75
968.691	28.75
969.421	22.75
970.151	25.75
970.881	35.75
971.611	28.75
972.341	25.75
973.071	9.75
973.801	34.75
974.53	29.75
975.26	22.75
975.99	13.75
976.719	29.75
977.448	22.75
978.178	25.75
978.907	34.75
979.636	27.75
980.365	24.75
981.095	11.75
981.824	18.75
982.553	15.75
983.281	16.75
984.01	-3.25
984.739	1.75
985.468	-1.25
986.196	-0.25
986.925	40.75
987.653	31.75
988.382	11.75
989.11	21.75
989.838	25.75
990.566	21.75
991.295	17.75
992.023	29.75
992.751	24.75
993.478	20.75
994.206	26.75
994.934	15.75
995.662	-4.25
996.389	1.75
997.117	3.75
997.845	1.75
