Data from SampleKW32_Bg_Subt2_003.txt Node
Date: Fri Aug 23 09:23:11 EDT 2019
User: wcc
Spectrometer: QEPB0759
Trigger mode: 0
Integration Time (sec): 1.000000E0
Scans to average: 1
Electric dark correction enabled: true
Nonlinearity correction enabled: true
Boxcar width: 0
XAxis mode: Wavelengths
Number of Pixels in Spectrum: 1044
>>>>>Begin Spectral Data<<<<<
197.938	-19.6
198.749	-24.73
199.559	-15.5
200.369	-6.28
201.179	-11.4
201.988	-34.98
202.798	-12.43
203.608	-27.81
204.417	-21.65
205.227	-17.56
206.036	-9.35
206.846	-31.9
207.655	-28.83
208.464	-13.45
209.273	-5.25
210.082	-18.58
210.891	-29.86
211.7	-34.98
212.508	-25.76
213.317	-10.38
214.125	-25.76
214.934	-20.63
215.742	-19.61
216.55	9.1
217.359	-23.71
218.167	-12.43
218.975	-33.95
219.782	-8.33
220.59	-27.81
221.398	-23.71
222.206	-25.75
223.013	-15.5
223.82	-16.53
224.628	-10.38
225.435	-14.48
226.242	-20.63
227.049	-32.93
227.856	-16.53
228.663	-21.65
229.47	-13.45
230.277	-18.58
231.083	-19.61
231.89	-28.83
232.696	-23.7
233.502	-10.38
234.309	-19.61
235.115	-25.75
235.921	-28.83
236.727	-13.46
237.533	-32.93
238.339	-44.21
239.144	-20.63
239.95	-20.63
240.756	-10.38
241.561	-21.65
242.366	-30.88
243.172	-27.8
243.977	-17.55
244.782	-36.01
245.587	-15.5
246.392	-21.65
247.197	-19.61
248.001	-17.56
248.806	-15.5
249.611	-20.63
250.415	-8.33
251.219	-24.73
252.024	-8.33
252.828	-23.71
253.632	-18.58
254.436	-7.3
255.24	-19.6
256.044	-13.45
256.848	-19.61
257.651	-21.66
258.455	-29.86
259.258	-20.63
260.062	-1975.78
260.865	-23.7
261.668	-0.13
262.471	-20.63
263.274	-31.9
264.077	-19.61
264.88	-24.73
265.683	-2.18
266.486	-17.56
267.288	-14.48
268.091	-13.46
268.893	-38.06
269.696	-27.8
270.498	-19.6
271.3	-38.06
272.102	-26.78
272.904	-42.16
273.706	-7.3
274.508	-16.53
275.309	-43.18
276.111	-11.4
276.913	0.9
277.714	-15.51
278.515	-33.96
279.317	-7.3
280.118	-11.41
280.919	-30.88
281.72	-15.5
282.521	-24.73
283.322	-6.28
284.122	-6.28
284.923	-25.75
285.724	-14.48
286.524	-24.73
287.325	-39.08
288.125	-37.03
288.925	-21.66
289.725	-45.23
290.525	-29.85
291.325	-19.6
292.125	-19.6
292.925	-22.68
293.724	-17.56
294.524	-30.88
295.324	-16.53
296.123	-29.86
296.922	-5.25
297.722	-13.45
298.521	-19.6
299.32	-18.58
300.119	-21.66
300.918	-22.68
301.716	-5.25
302.515	-21.66
303.314	-30.88
304.112	-30.88
304.911	-27.8
305.709	-20.63
306.507	-22.68
307.306	-32.93
308.104	-31.91
308.902	-20.63
309.7	-23.7
310.498	-39.08
311.295	-38.06
312.093	-21.65
312.891	-23.7
313.688	-6.28
314.485	-15.5
315.283	-10.38
316.08	-16.53
316.877	-25.75
317.674	-23.71
318.471	-20.63
319.268	-21.66
320.065	-16.53
320.862	-28.83
321.658	5
322.455	3.97
323.251	-32.93
324.047	-11.4
324.844	-16.53
325.64	1.92
326.436	-9.35
327.232	-31.91
328.028	-22.68
328.824	-25.76
329.62	-26.78
330.415	-23.7
331.211	-15.5
332.006	-9.35
332.802	-27.8
333.597	-30.88
334.392	-24.73
335.187	-14.48
335.982	-0.13
336.777	-3.2
337.572	-25.76
338.367	-22.68
339.162	-25.75
339.956	-10.38
340.751	-14.48
341.545	-37.03
342.34	-25.75
343.134	-14.48
343.928	-10.38
344.722	-19.6
345.516	-15.51
346.31	-44.21
347.104	-31.91
347.898	-19.6
348.691	-27.81
349.485	-3.2
350.278	-23.7
351.072	-8.33
351.865	-552.7
352.658	-7.3
353.452	-22.68
354.245	-14.48
355.038	-13.45
355.83	-13.45
356.623	-19.61
357.416	-19.61
358.209	-3.2
359.001	-30.88
359.794	-10.38
360.586	-29.85
361.378	-30.88
362.17	-33.96
362.963	-15.51
363.755	5
364.546	-30.88
365.338	-14.48
366.13	-13.45
366.922	-28.83
367.713	-15.5
368.505	-38.06
369.296	-15.5
370.088	-17.56
370.879	-26.78
371.67	-29.86
372.461	-12.43
373.252	-10.38
374.043	-29.85
374.834	-21.66
375.625	-15.5
376.415	-33.95
377.206	-10.38
377.996	-32.93
378.787	-22.68
379.577	-20.63
380.367	-12.43
381.157	-20.63
381.947	-9.35
382.737	-20.63
383.527	-21.65
384.317	-29.85
385.107	0.9
385.896	-17.55
386.686	-25.75
387.475	-25.75
388.265	-20.63
389.054	-27.8
389.843	-4.23
390.632	-30.88
391.421	-32.93
392.21	-10.38
392.999	-24.73
393.788	-19.6
394.576	-18.58
395.365	-33.95
396.154	10.12
396.942	-9.35
397.73	-20.63
398.519	-14.48
399.307	-13.45
400.095	-39.08
400.883	-14.48
401.671	-8.33
402.459	-25.75
403.246	-26.78
404.034	-20.63
404.822	-22.68
405.609	-19.6
406.396	-2.18
407.184	-20.63
407.971	-15.5
408.758	-11.4
409.545	-1.15
410.332	-24.73
411.119	-21.65
411.906	-10.38
412.693	-23.7
413.479	-15.5
414.266	-22.68
415.052	-15.5
415.839	-8.33
416.625	-21.66
417.411	-15.5
418.197	-16.53
418.983	-24.73
419.769	-7.3
420.555	-23.7
421.341	0.9
422.127	-23.7
422.912	-29.86
423.698	-6.28
424.483	-27.81
425.269	-11.4
426.054	-21.66
426.839	-4.23
427.624	-15.51
428.409	-19.6
429.194	-15.5
429.979	-10.38
430.764	-10.38
431.549	-19.6
432.333	-23.7
433.118	-13.46
433.902	-29.85
434.687	-55.48
435.471	-55.48
436.255	-29.85
437.039	-9.35
437.823	-22.68
438.607	-20.63
439.391	-30.88
440.175	-15.5
440.958	-6.28
441.742	-20.63
442.526	-30.88
443.309	-28.83
444.092	-34.98
444.876	-3.2
445.659	-23.71
446.442	-26.78
447.225	-21.65
448.008	-24.73
448.791	-13.45
449.573	18.32
450.356	-14.48
451.139	-29.85
451.921	-14.48
452.704	-17.55
453.486	-19.6
454.268	-21.65
455.05	-12.43
455.833	-18.58
456.615	-15.5
457.396	-11.4
458.178	-20.63
458.96	-11.4
459.742	-10.38
460.523	-11.4
461.305	2.95
462.086	-19.6
462.868	-17.55
463.649	-8.33
464.43	-6.28
465.211	-6.28
465.992	-14.48
466.773	-21.65
467.554	-6.28
468.335	-16.53
469.115	-5.25
469.896	12.17
470.676	-10.38
471.457	-20.63
472.237	-22.68
473.018	-3.2
473.798	-9.35
474.578	-25.75
475.358	-11.4
476.138	1.92
476.918	-17.56
477.697	-14.48
478.477	5
479.257	-11.4
480.036	-19.61
480.816	-26.78
481.595	-21.65
482.374	-38.06
483.153	-24.73
483.932	-19.6
484.711	-22.68
485.49	-51.38
486.269	-36.01
487.048	-61.64
487.827	-39.08
488.605	-40.11
489.384	-51.38
490.162	-34.98
490.941	-31.9
491.719	-19.61
492.497	-38.06
493.275	-34.98
494.053	-16.53
494.831	-14.48
495.609	-38.06
496.387	-14.48
497.164	-53.43
497.942	-19.6
498.72	-15.5
499.497	-24.73
500.274	-24.73
501.052	-31.91
501.829	-17.55
502.606	-20.63
503.383	-26.78
504.16	-8.33
504.937	-22.68
505.714	-23.71
506.49	-11.4
507.267	-30.88
508.043	-32.93
508.82	-29.85
509.596	-6.28
510.373	-17.55
511.149	-16.53
511.925	-24.73
512.701	0.9
513.477	-26.78
514.253	-33.96
515.029	-31.91
515.804	-32.93
516.58	-24.73
517.356	-17.55
518.131	-23.7
518.906	-6.28
519.682	-22.68
520.457	-33.96
521.232	-10.38
522.007	-31.9
522.782	-23.71
523.557	-7.3
524.332	-36.01
525.107	-22.68
525.881	-16.53
526.656	-17.56
527.43	-27.81
528.205	-49.33
528.979	-33.96
529.753	-26.78
530.527	-22.68
531.302	-32.93
532.076	-36.01
532.849	-36.01
533.623	-39.08
534.397	-23.71
535.171	-19.6
535.944	-18.58
536.718	-42.16
537.491	-41.12
538.265	-38.06
539.038	-45.23
539.811	-41.13
540.584	-62.66
541.357	-64.71
542.13	-72.89
542.903	-69.82
543.676	-84.18
544.449	-61.63
545.221	-80.08
545.994	-58.56
546.766	-55.48
547.539	-41.13
548.311	-68.8
549.083	-44.21
549.855	-37.04
550.627	-49.33
551.399	-44.21
552.171	-46.25
552.943	-29.85
553.715	-33.96
554.486	-15.5
555.258	-13.46
556.029	-18.58
556.801	-4.23
557.572	-21.66
558.343	-27.81
559.114	-31.9
559.886	-31.9
560.657	-32.93
561.427	-25.76
562.198	-32.93
562.969	-23.7
563.74	-20.63
564.51	-33.96
565.281	-42.15
566.051	-12.43
566.822	-26.78
567.592	-23.71
568.362	-14.48
569.132	-32.93
569.902	-17.55
570.672	-24.73
571.442	-32.93
572.212	-31.9
572.982	-19.61
573.751	-32.93
574.521	-25.76
575.29	-21.65
576.06	-47.28
576.829	-31.91
577.598	-40.11
578.367	-44.21
579.136	-18.58
579.905	-13.45
580.674	-39.08
581.443	-52.4
582.212	-43.18
582.981	-43.18
583.749	-26.78
584.518	-34.98
585.286	-37.03
586.054	-57.52
586.823	-48.3
587.591	-56.51
588.359	-51.38
589.127	-42.15
589.895	-24.73
590.663	-58.55
591.431	-48.3
592.198	-36
592.966	-33.95
593.734	-50.35
594.501	-17.55
595.268	-16.53
596.036	-42.15
596.803	-17.55
597.57	-47.28
598.337	-28.83
599.104	-52.41
599.871	-17.55
600.638	-20.63
601.405	-16.53
602.171	-5.25
602.938	-29.85
603.704	0.9
604.471	-25.76
605.237	-19.6
606.004	-16.53
606.77	-36
607.536	-26.78
608.302	-31.9
609.068	-41.13
609.834	-78.03
610.599	-106.71
611.365	-52.4
612.131	-57.53
612.896	-28.83
613.662	-57.52
614.427	-16.53
615.193	-26.78
615.958	-28.83
616.723	-30.88
617.488	-3.2
618.253	0.9
619.018	-21.65
619.783	-28.83
620.548	-25.75
621.312	-15.5
622.077	-0.13
622.842	-19.6
623.606	-21.65
624.37	-12.43
625.135	-5.25
625.899	3.97
626.663	-22.68
627.427	-14.48
628.191	1.92
628.955	-31.9
629.719	-25.75
630.483	-13.45
631.246	-17.56
632.01	-24.73
632.773	-17.55
633.537	9.1
634.3	8.07
635.063	-4.23
635.827	6.02
636.59	-3.2
637.353	-18.58
638.116	9.1
638.879	3.97
639.641	9.1
640.404	3.97
641.167	6.02
641.929	-12.43
642.692	-4.23
643.454	1.92
644.216	-8.33
644.979	-28.83
645.741	6.02
646.503	-3.2
647.265	10.12
648.027	-12.43
648.789	2.95
649.551	-4.23
650.312	1.92
651.074	-3.2
651.835	-4.23
652.597	5
653.358	-8.33
654.12	12.17
654.881	7.05
655.642	1.92
656.403	3.97
657.164	-4.23
657.925	10.12
658.686	-6.28
659.447	2.95
660.207	-1.15
660.968	8.07
661.728	-4.23
662.489	-6.28
663.249	-0.13
664.01	6.02
664.77	0.9
665.53	31.65
666.29	-5.25
667.05	3.97
667.81	19.35
668.57	15.25
669.329	-13.45
670.089	2.95
670.849	9.1
671.608	5
672.368	10.12
673.127	6.02
673.886	10.12
674.646	1.92
675.405	6.02
676.164	13.2
676.923	8.07
677.682	3.97
678.44	10.12
679.199	16.27
679.958	-31.89
680.717	14.22
681.475	8.07
682.233	12.17
682.992	1.92
683.75	-0.13
684.508	-2.18
685.266	-0.13
686.024	2.95
686.782	2.95
687.54	13.2
688.298	-8.33
689.056	7.05
689.814	-4.23
690.571	-16.53
691.329	9.1
692.086	5
692.843	20.37
693.601	19.35
694.358	14.22
695.115	13.2
695.872	9.1
696.629	-3.2
697.386	-2.18
698.143	8.07
698.9	9.1
699.656	-0.13
700.413	14.22
701.169	-6.28
701.926	3.97
702.682	18.32
703.438	-0.13
704.195	1.92
704.951	6.02
705.707	-10.38
706.463	-1.15
707.219	-4.23
707.974	-25.76
708.73	-24.73
709.486	-17.55
710.241	-9.35
710.997	-5.25
711.752	-8.33
712.508	-6.28
713.263	-6.28
714.018	12.17
714.773	-13.45
715.528	0.9
716.283	-3.2
717.038	-16.53
717.793	-7.3
718.548	-13.45
719.303	7.05
720.057	-0.13
720.812	-13.45
721.566	6.02
722.321	-24.73
723.075	-16.53
723.829	-13.45
724.583	-7.3
725.337	-8.33
726.091	-4.23
726.845	-2.18
727.599	-17.56
728.353	-7.3
729.106	-14.48
729.86	-23.7
730.614	-15.51
731.367	100.49
732.12	-6.28
732.874	-5.25
733.627	-10.38
734.38	-12.43
735.133	7.05
735.886	-11.4
736.639	-18.58
737.392	-8.33
738.145	-3.2
738.897	-5.25
739.65	-3.2
740.403	-7.3
741.155	-17.55
741.907	-17.55
742.66	-14.48
743.412	-28.83
744.164	-18.58
744.916	7.05
745.668	-19.6
746.42	-24.73
747.172	-4.23
747.924	-16.53
748.676	-18.58
749.427	-25.76
750.179	-20.63
750.93	-4.23
751.682	6.02
752.433	-21.65
753.184	-28.83
753.935	-22.68
754.687	-7.3
755.438	-26.78
756.189	-18.58
756.939	-21.66
757.69	-11.4
758.441	-17.55
759.192	-12.43
759.942	-17.55
760.693	-31.9
761.443	-16.53
762.194	-3.2
762.944	-12.43
763.694	-12.43
764.444	-9.35
765.194	-4.23
765.944	-21.65
766.694	-22.68
767.444	-18.58
768.194	-10.38
768.943	-22.68
769.693	-37.03
770.443	-22.68
771.192	-42.15
771.941	-13.46
772.691	-21.65
773.44	-34.98
774.189	-20.63
774.938	-32.93
775.687	-43.18
776.436	-32.93
777.185	-25.75
777.934	-23.71
778.683	-24.73
779.431	-14.48
780.18	-12.43
780.928	-10.38
781.677	-15.5
782.425	-19.6
783.173	-30.88
783.922	-23.7
784.67	-14.48
785.418	-26.78
786.166	-10.38
786.914	-5.25
787.661	-31.9
788.409	-20.63
789.157	-29.86
789.904	-27.81
790.652	-6.28
791.399	-25.75
792.147	-16.53
792.894	-25.75
793.641	-21.65
794.388	-92.71
795.136	-10.38
795.883	-8.33
796.629	-21.65
797.376	-33.96
798.123	-9.35
798.87	-18.58
799.616	-18.58
800.363	-13.45
801.109	-18.58
801.856	-22.68
802.602	-24.73
803.349	-14.48
804.095	-12.43
804.841	-25.75
805.587	-20.63
806.333	-24.73
807.079	-18.58
807.825	-4.23
808.57	-30.88
809.316	-20.63
810.062	-36
810.807	-26.78
811.553	1.92
812.298	-23.7
813.043	-13.45
813.788	-21.65
814.534	-4.23
815.279	-19.6
816.024	-19.6
816.769	-12.43
817.514	-20.63
818.258	-23.7
819.003	-21.65
819.748	-422.53
820.492	-19.6
821.237	-84.65
821.981	-22.68
822.726	-28.83
823.47	-28.83
824.214	-10.38
824.958	-47.28
825.702	-50.35
826.446	-17.55
827.19	-12.43
827.934	-22.68
828.678	-23.7
829.421	-6.28
830.165	-29.85
830.909	-13.45
831.652	-14.48
832.395	-22.68
833.139	-9.35
833.882	-17.55
834.625	-22.68
835.368	-30.88
836.111	-12.43
836.854	-42.15
837.597	-18.58
838.34	-31.9
839.083	-1.15
839.825	-33.95
840.568	-9.35
841.311	-18.58
842.053	-28.83
842.795	-22.68
843.538	-11.4
844.28	-23.71
845.022	-3.2
845.764	-29.85
846.506	-25.76
847.248	-40.11
847.99	-25.75
848.732	-27.8
849.474	-28.83
850.215	-28.83
850.957	-23.71
851.698	-16.53
852.44	-17.55
853.181	-8.33
853.922	-20.63
854.664	-12.43
855.405	-26.78
856.146	-26.78
856.887	-25.76
857.628	-36
858.369	-14.48
859.109	-21.65
859.85	-17.55
860.591	-8.33
861.331	-29.86
862.072	-2.18
862.812	-36.01
863.553	-12.43
864.293	-30.88
865.033	-20.63
865.773	-9.35
866.513	-7.3
867.253	-16.53
867.993	-17.56
868.733	-39.08
869.473	-21.65
870.213	-33.95
870.952	-27.81
871.692	-39.08
872.431	-19.61
873.171	-16.53
873.91	-5.25
874.649	-9.36
875.388	-9.35
876.128	-25.76
876.867	-15.51
877.606	-21.65
878.345	-29.86
879.083	-9.35
879.822	-32.93
880.561	-32.93
881.299	-22.68
882.038	-22.68
882.777	3.97
883.515	-39.08
884.253	-23.43
884.992	-17.55
885.73	-12.43
886.468	-12.43
887.206	-28.83
887.944	-29.85
888.682	-21.65
889.42	-34.98
890.157	-15.5
890.895	-10.38
891.633	-52.36
892.37	-20.63
893.108	-22.68
893.845	-23.7
894.583	-20.63
895.32	0.9
896.057	-7.3
896.794	-12.43
897.531	-31.9
898.268	-24.73
899.005	-22.68
899.742	-21.66
900.479	-31.91
901.215	-16.53
901.952	-13.45
902.689	-18.58
903.425	-15.51
904.162	-6.28
904.898	-27.8
905.634	-24.73
906.37	-11.4
907.106	-6.28
907.843	-16.53
908.579	-13.45
909.314	-19.61
910.05	-19.61
910.786	-36.01
911.522	-12.43
912.257	-51.38
912.993	-13.45
913.728	-6.28
914.464	-23.71
915.199	-24.73
915.935	-26.78
916.67	-20.63
917.405	-28.83
918.14	-26.78
918.875	-13.45
919.61	-16.53
920.345	-30.88
921.08	-44.2
921.814	-23.71
922.549	-11.41
923.284	-32.93
924.018	-22.68
924.752	-22.68
925.487	-28.83
926.221	-20.63
926.955	-20.63
927.69	-16.53
928.424	-17.56
929.158	-14.48
929.892	-28.83
930.625	-17.55
931.359	-10.38
932.093	-1.15
932.827	-14.48
933.56	-23.71
934.294	-24.73
935.027	-18.58
935.761	-24.73
936.494	-12.43
937.227	-25.76
937.96	-16.53
938.693	-18.58
939.426	-13.46
940.159	-36
940.892	-22.68
941.625	-16.53
942.358	-37.03
943.091	-32.93
943.823	-27.81
944.556	-26.78
945.288	-1.15
946.021	-0.13
946.753	-23.71
947.485	-13.45
948.217	-4.23
948.95	-37.03
949.682	-20.63
950.414	-27.81
951.146	-16.53
951.877	-21.66
952.609	15.25
953.341	-13.45
954.073	-19.6
954.804	-22.68
955.536	-13.45
956.267	-31.9
956.998	-2.18
957.73	-38.06
958.461	-17.56
959.192	-10.38
959.923	-21.65
960.654	-15.5
961.385	-3.2
962.116	-15.5
962.847	-5.25
963.578	-15.5
964.308	-16.53
965.039	-19.61
965.769	-32.93
966.5	-19.6
967.23	-9.35
967.961	-7.3
968.691	-30.88
969.421	-23.71
970.151	-26.78
970.881	-39.08
971.611	-29.85
972.341	-33.96
973.071	-30.88
973.801	-7.3
974.53	-17.56
975.26	-23.71
975.99	-25.75
976.719	-28.83
977.448	-14.48
978.178	-16.53
978.907	-23.71
979.636	-14.48
980.365	-20.63
981.095	-11.4
981.824	-23.7
982.553	-16.53
983.281	-20.63
984.01	-1.15
984.739	2.95
985.468	-11.42
986.196	3.98
986.925	-25.75
987.653	-15.5
988.382	-24.73
989.11	-15.5
989.838	0.9
990.566	-5.25
991.295	-23.71
992.023	-22.68
992.751	-8.33
993.478	-6.28
994.206	-17.55
994.934	-15.5
995.662	-9.36
996.389	5
997.117	-4.23
997.845	14.24
