Data from Sample_Bg_Subt2_006.txt Node
Date: Tue Aug 27 12:41:49 EDT 2019
User: wcc
Spectrometer: QEPB0759
Trigger mode: 0
Integration Time (sec): 1.000000E0
Scans to average: 1
Electric dark correction enabled: true
Nonlinearity correction enabled: false
Boxcar width: 0
XAxis mode: Wavelengths
Number of Pixels in Spectrum: 1044
>>>>>Begin Spectral Data<<<<<
197.938	20.88
198.749	31.88
199.559	22.88
200.369	16.88
201.179	8.88
201.988	23.88
202.798	43.88
203.608	11.88
204.417	20.88
205.227	23.88
206.036	7.88
206.846	13.88
207.655	25.88
208.464	23.88
209.273	21.88
210.082	21.88
210.891	29.88
211.7	25.88
212.508	26.88
213.317	12.88
214.125	15.88
214.934	34.88
215.742	10.88
216.55	16.88
217.359	19.88
218.167	35.88
218.975	20.88
219.782	25.88
220.59	16.88
221.398	11.88
222.206	18.88
223.013	26.88
223.82	41.88
224.628	23.88
225.435	25.88
226.242	17.88
227.049	16.88
227.856	14.88
228.663	28.88
229.47	28.88
230.277	28.88
231.083	26.88
231.89	22.88
232.696	22.88
233.502	25.88
234.309	33.88
235.115	18.88
235.921	10.88
236.727	23.88
237.533	15.88
238.339	21.88
239.144	23.88
239.95	26.88
240.756	26.88
241.561	21.88
242.366	26.88
243.172	26.88
243.977	26.88
244.782	24.88
245.587	23.88
246.392	21.88
247.197	8.88
248.001	22.88
248.806	30.88
249.611	24.88
250.415	21.88
251.219	23.88
252.024	13.88
252.828	29.88
253.632	25.88
254.436	24.88
255.24	29.88
256.044	11.88
256.848	13.88
257.651	17.88
258.455	31.88
259.258	21.88
260.062	741.88
260.865	20.88
261.668	32.88
262.471	6.88
263.274	25.88
264.077	22.88
264.88	12.88
265.683	16.88
266.486	2.88
267.288	19.88
268.091	28.88
268.893	16.88
269.696	15.88
270.498	23.88
271.3	16.88
272.102	23.88
272.904	24.88
273.706	9.88
274.508	12.88
275.309	37.88
276.111	27.88
276.913	17.88
277.714	28.88
278.515	17.88
279.317	31.88
280.118	12.88
280.919	20.88
281.72	28.88
282.521	16.88
283.322	26.88
284.122	23.88
284.923	18.88
285.724	21.88
286.524	33.88
287.325	36.88
288.125	9.88
288.925	30.88
289.725	6.88
290.525	23.88
291.325	20.88
292.125	20.88
292.925	19.88
293.724	25.88
294.524	9.88
295.324	25.88
296.123	12.88
296.922	15.88
297.722	24.88
298.521	22.88
299.32	17.88
300.119	24.88
300.918	30.88
301.716	21.88
302.515	27.88
303.314	19.88
304.112	27.88
304.911	12.88
305.709	24.88
306.507	28.88
307.306	13.88
308.104	28.88
308.902	14.88
309.7	25.88
310.498	26.88
311.295	23.88
312.093	38.88
312.891	27.88
313.688	37.88
314.485	20.88
315.283	20.88
316.08	19.88
316.877	36.88
317.674	12.88
318.471	29.88
319.268	20.88
320.065	9.88
320.862	13.88
321.658	26.88
322.455	20.88
323.251	23.88
324.047	21.88
324.844	31.88
325.64	9.88
326.436	24.88
327.232	21.88
328.028	32.88
328.824	21.88
329.62	30.88
330.415	21.88
331.211	13.88
332.006	17.88
332.802	30.88
333.597	18.88
334.392	27.88
335.187	23.88
335.982	31.88
336.777	29.88
337.572	28.88
338.367	30.88
339.162	21.88
339.956	13.88
340.751	21.88
341.545	26.88
342.34	18.88
343.134	21.88
343.928	19.88
344.722	24.88
345.516	23.88
346.31	19.88
347.104	27.88
347.898	26.88
348.691	18.88
349.485	10.88
350.278	15.88
351.072	36.88
351.865	128.88
352.658	21.88
353.452	15.88
354.245	12.88
355.038	19.88
355.83	28.88
356.623	34.88
357.416	18.88
358.209	26.88
359.001	14.88
359.794	26.88
360.586	34.88
361.378	28.88
362.17	8.88
362.963	13.88
363.755	17.88
364.546	25.88
365.338	19.88
366.13	24.88
366.922	21.88
367.713	23.88
368.505	32.88
369.296	20.88
370.088	15.88
370.879	28.88
371.67	17.88
372.461	17.88
373.252	24.88
374.043	24.88
374.834	15.88
375.625	33.88
376.415	11.88
377.206	21.88
377.996	27.88
378.787	34.88
379.577	12.88
380.367	19.88
381.157	23.88
381.947	27.88
382.737	4.88
383.527	17.88
384.317	16.88
385.107	26.88
385.896	10.88
386.686	25.88
387.475	23.88
388.265	29.88
389.054	20.88
389.843	16.88
390.632	27.88
391.421	24.88
392.21	16.88
392.999	9.88
393.788	25.88
394.576	24.88
395.365	24.88
396.154	12.88
396.942	19.88
397.73	29.88
398.519	27.88
399.307	13.88
400.095	29.88
400.883	14.88
401.671	27.88
402.459	14.88
403.246	14.88
404.034	32.88
404.822	10.88
405.609	23.88
406.396	28.88
407.184	25.88
407.971	30.88
408.758	27.88
409.545	20.88
410.332	34.88
411.119	25.88
411.906	27.88
412.693	32.88
413.479	26.88
414.266	25.88
415.052	23.88
415.839	14.88
416.625	21.88
417.411	18.88
418.197	23.88
418.983	37.88
419.769	18.88
420.555	24.88
421.341	33.88
422.127	34.88
422.912	30.88
423.698	16.88
424.483	12.88
425.269	38.88
426.054	15.88
426.839	25.88
427.624	15.88
428.409	31.88
429.194	26.88
429.979	34.88
430.764	17.88
431.549	30.88
432.333	34.88
433.118	11.88
433.902	24.88
434.687	21.88
435.471	10.88
436.255	28.88
437.039	23.88
437.823	18.88
438.607	26.88
439.391	23.88
440.175	-4.12
440.958	23.88
441.742	23.88
442.526	25.88
443.309	21.88
444.092	34.88
444.876	36.88
445.659	32.88
446.442	23.88
447.225	23.88
448.008	44.88
448.791	35.88
449.573	36.88
450.356	22.88
451.139	24.88
451.921	13.88
452.704	22.88
453.486	37.88
454.268	33.88
455.05	32.88
455.833	32.88
456.615	19.88
457.396	31.88
458.178	25.88
458.96	32.88
459.742	29.88
460.523	36.88
461.305	23.88
462.086	40.88
462.868	29.88
463.649	30.88
464.43	27.88
465.211	37.88
465.992	35.88
466.773	37.88
467.554	30.88
468.335	28.88
469.115	35.88
469.896	15.88
470.676	26.88
471.457	28.88
472.237	37.88
473.018	9.88
473.798	34.88
474.578	40.88
475.358	26.88
476.138	16.88
476.918	28.88
477.697	19.88
478.477	14.88
479.257	29.88
480.036	21.88
480.816	12.88
481.595	33.88
482.374	8.88
483.153	24.88
483.932	30.88
484.711	14.88
485.49	21.88
486.269	17.88
487.048	17.88
487.827	9.88
488.605	21.88
489.384	20.88
490.162	14.88
490.941	7.88
491.719	10.88
492.497	14.88
493.275	16.88
494.053	18.88
494.831	13.88
495.609	25.88
496.387	23.88
497.164	16.88
497.942	18.88
498.72	28.88
499.497	19.88
500.274	24.88
501.052	32.88
501.829	34.88
502.606	19.88
503.383	28.88
504.16	37.88
504.937	30.88
505.714	34.88
506.49	35.88
507.267	20.88
508.043	17.88
508.82	31.88
509.596	26.88
510.373	16.88
511.149	29.88
511.925	20.88
512.701	18.88
513.477	19.88
514.253	15.88
515.029	35.88
515.804	29.88
516.58	18.88
517.356	21.88
518.131	34.88
518.906	19.88
519.682	7.88
520.457	20.88
521.232	7.88
522.007	23.88
522.782	23.88
523.557	10.88
524.332	20.88
525.107	27.88
525.881	14.88
526.656	26.88
527.43	33.88
528.205	21.88
528.979	17.88
529.753	14.88
530.527	29.88
531.302	13.88
532.076	14.88
532.849	14.88
533.623	28.88
534.397	23.88
535.171	16.88
535.944	24.88
536.718	18.88
537.491	24.88
538.265	19.88
539.038	20.88
539.811	20.88
540.584	22.88
541.357	10.88
542.13	24.88
542.903	20.88
543.676	19.88
544.449	16.88
545.221	-2.12
545.994	23.88
546.766	9.88
547.539	11.88
548.311	18.88
549.083	12.88
549.855	7.88
550.627	28.88
551.399	29.88
552.171	20.88
552.943	22.88
553.715	20.88
554.486	25.88
555.258	12.88
556.029	26.88
556.801	19.88
557.572	22.88
558.343	22.88
559.114	8.88
559.886	19.88
560.657	23.88
561.427	23.88
562.198	26.88
562.969	14.88
563.74	20.88
564.51	13.88
565.281	23.88
566.051	20.88
566.822	23.88
567.592	14.88
568.362	24.88
569.132	20.88
569.902	30.88
570.672	28.88
571.442	20.88
572.212	26.88
572.982	21.88
573.751	21.88
574.521	29.88
575.29	24.88
576.06	24.88
576.829	12.88
577.598	17.88
578.367	14.88
579.136	27.88
579.905	28.88
580.674	19.88
581.443	28.88
582.212	16.88
582.981	16.88
583.749	19.88
584.518	22.88
585.286	21.88
586.054	23.88
586.823	21.88
587.591	11.88
588.359	32.88
589.127	23.88
589.895	28.88
590.663	22.88
591.431	22.88
592.198	29.88
592.966	33.88
593.734	18.88
594.501	25.88
595.268	30.88
596.036	39.88
596.803	25.88
597.57	21.88
598.337	19.88
599.104	29.88
599.871	27.88
600.638	37.88
601.405	29.88
602.171	24.88
602.938	30.88
603.704	32.88
604.471	22.88
605.237	32.88
606.004	32.88
606.77	33.88
607.536	28.88
608.302	28.88
609.068	38.88
609.834	11.88
610.599	20.88
611.365	33.88
612.131	39.88
612.896	32.88
613.662	42.88
614.427	26.88
615.193	31.88
615.958	25.88
616.723	33.88
617.488	28.88
618.253	25.88
619.018	32.88
619.783	42.88
620.548	37.88
621.312	40.88
622.077	34.88
622.842	45.88
623.606	38.88
624.37	17.88
625.135	34.88
625.899	48.88
626.663	44.88
627.427	36.88
628.191	35.88
628.955	48.88
629.719	35.88
630.483	41.88
631.246	31.88
632.01	31.88
632.773	51.88
633.537	45.88
634.3	45.88
635.063	25.88
635.827	24.88
636.59	28.88
637.353	31.88
638.116	42.88
638.879	36.88
639.641	20.88
640.404	41.88
641.167	48.88
641.929	38.88
642.692	47.88
643.454	42.88
644.216	26.88
644.979	41.88
645.741	37.88
646.503	48.88
647.265	48.88
648.027	26.88
648.789	47.88
649.551	40.88
650.312	33.88
651.074	37.88
651.835	43.88
652.597	40.88
653.358	38.88
654.12	42.88
654.881	30.88
655.642	37.88
656.403	35.88
657.164	41.88
657.925	40.88
658.686	35.88
659.447	46.88
660.207	46.88
660.968	55.88
661.728	39.88
662.489	45.88
663.249	51.88
664.01	43.88
664.77	28.88
665.53	38.88
666.29	38.88
667.05	55.88
667.81	42.88
668.57	53.88
669.329	38.88
670.089	40.88
670.849	39.88
671.608	56.88
672.368	48.88
673.127	42.88
673.886	48.88
674.646	38.88
675.405	41.88
676.164	50.88
676.923	56.88
677.682	31.88
678.44	32.88
679.199	46.88
679.958	71.88
680.717	36.88
681.475	44.88
682.233	45.88
682.992	45.88
683.75	44.88
684.508	42.88
685.266	46.88
686.024	43.88
686.782	44.88
687.54	56.88
688.298	36.88
689.056	37.88
689.814	41.88
690.571	51.88
691.329	46.88
692.086	56.88
692.843	37.88
693.601	43.88
694.358	32.88
695.115	41.88
695.872	52.88
696.629	44.88
697.386	40.88
698.143	47.88
698.9	44.88
699.656	45.88
700.413	32.88
701.169	41.88
701.926	43.88
702.682	36.88
703.438	48.88
704.195	34.88
704.951	41.88
705.707	37.88
706.463	39.88
707.219	26.88
707.974	39.88
708.73	24.88
709.486	46.88
710.241	29.88
710.997	39.88
711.752	45.88
712.508	42.88
713.263	33.88
714.018	43.88
714.773	41.88
715.528	26.88
716.283	34.88
717.038	42.88
717.793	40.88
718.548	28.88
719.303	29.88
720.057	36.88
720.812	26.88
721.566	41.88
722.321	38.88
723.075	29.88
723.829	47.88
724.583	32.88
725.337	25.88
726.091	25.88
726.845	30.88
727.599	37.88
728.353	44.88
729.106	28.88
729.86	31.88
730.614	25.88
731.367	-99.12
732.12	26.88
732.874	44.88
733.627	40.88
734.38	29.88
735.133	21.88
735.886	26.88
736.639	34.88
737.392	22.88
738.145	23.88
738.897	26.88
739.65	26.88
740.403	24.88
741.155	27.88
741.907	37.88
742.66	23.88
743.412	34.88
744.164	47.88
744.916	33.88
745.668	22.88
746.42	48.88
747.172	37.88
747.924	25.88
748.676	17.88
749.427	14.88
750.179	25.88
750.93	26.88
751.682	25.88
752.433	28.88
753.184	34.88
753.935	31.88
754.687	19.88
755.438	27.88
756.189	31.88
756.939	23.88
757.69	27.88
758.441	39.88
759.192	24.88
759.942	22.88
760.693	32.88
761.443	43.88
762.194	31.88
762.944	12.88
763.694	28.88
764.444	21.88
765.194	27.88
765.944	20.88
766.694	25.88
767.444	10.88
768.194	28.88
768.943	17.88
769.693	23.88
770.443	22.88
771.192	28.88
771.941	17.88
772.691	31.88
773.44	14.88
774.189	13.88
774.938	26.88
775.687	14.88
776.436	17.88
777.185	24.88
777.934	28.88
778.683	19.88
779.431	23.88
780.18	18.88
780.928	18.88
781.677	21.88
782.425	34.88
783.173	29.88
783.922	25.88
784.67	4.88
785.418	24.88
786.166	28.88
786.914	21.88
787.661	19.88
788.409	26.88
789.157	26.88
789.904	10.88
790.652	19.88
791.399	17.88
792.147	32.88
792.894	17.88
793.641	14.88
794.388	284.88
795.136	23.88
795.883	21.88
796.629	4.88
797.376	15.88
798.123	24.88
798.87	28.88
799.616	21.88
800.363	26.88
801.109	28.88
801.856	29.88
802.602	8.88
803.349	30.88
804.095	23.88
804.841	29.88
805.587	32.88
806.333	22.88
807.079	35.88
807.825	22.88
808.57	17.88
809.316	35.88
810.062	23.88
810.807	18.88
811.553	37.88
812.298	19.88
813.043	29.88
813.788	14.88
814.534	21.88
815.279	14.88
816.024	10.88
816.769	22.88
817.514	17.88
818.258	24.88
819.003	33.88
819.748	618.88
820.492	16.88
821.237	113.88
821.981	19.88
822.726	25.88
823.47	26.88
824.214	12.88
824.958	18.88
825.702	20.88
826.446	18.88
827.19	20.88
827.934	16.88
828.678	18.88
829.421	26.88
830.165	22.88
830.909	21.88
831.652	12.88
832.395	24.88
833.139	13.88
833.882	22.88
834.625	24.88
835.368	10.88
836.111	14.88
836.854	24.88
837.597	25.88
838.34	21.88
839.083	26.88
839.825	14.88
840.568	22.88
841.311	12.88
842.053	25.88
842.795	28.88
843.538	15.88
844.28	18.88
845.022	10.88
845.764	18.88
846.506	10.88
847.248	17.88
847.99	26.88
848.732	29.88
849.474	9.88
850.215	7.88
850.957	23.88
851.698	24.88
852.44	23.88
853.181	28.88
853.922	15.88
854.664	23.88
855.405	20.88
856.146	30.88
856.887	23.88
857.628	18.88
858.369	11.88
859.109	21.88
859.85	19.88
860.591	14.88
861.331	33.88
862.072	28.88
862.812	16.88
863.553	20.88
864.293	28.88
865.033	20.88
865.773	26.88
866.513	16.88
867.253	22.88
867.993	22.88
868.733	10.88
869.473	6.88
870.213	23.88
870.952	13.88
871.692	18.88
872.431	29.88
873.171	25.88
873.91	19.88
874.649	10.88
875.388	33.88
876.128	15.88
876.867	24.88
877.606	19.88
878.345	27.88
879.083	26.88
879.822	33.88
880.561	24.88
881.299	23.88
882.038	13.88
882.777	19.88
883.515	25.88
884.253	147.88
884.992	24.88
885.73	26.88
886.468	14.88
887.206	28.88
887.944	32.88
888.682	20.88
889.42	20.88
890.157	25.88
890.895	21.88
891.633	17.88
892.37	38.88
893.108	26.88
893.845	22.88
894.583	23.88
895.32	21.88
896.057	24.88
896.794	29.88
897.531	34.88
898.268	18.88
899.005	32.88
899.742	30.88
900.479	6.88
901.215	14.88
901.952	29.88
902.689	33.88
903.425	13.88
904.162	9.88
904.898	11.88
905.634	20.88
906.37	27.88
907.106	17.88
907.843	15.88
908.579	26.88
909.314	16.88
910.05	29.88
910.786	29.88
911.522	15.88
912.257	17.88
912.993	13.88
913.728	12.88
914.464	31.88
915.199	26.88
915.935	30.88
916.67	27.88
917.405	20.88
918.14	17.88
918.875	27.88
919.61	38.88
920.345	21.88
921.08	31.88
921.814	21.88
922.549	25.88
923.284	15.88
924.018	13.88
924.752	27.88
925.487	24.88
926.221	26.88
926.955	5.88
927.69	9.88
928.424	17.88
929.158	30.88
929.892	14.88
930.625	26.88
931.359	29.88
932.093	25.88
932.827	19.88
933.56	17.88
934.294	17.88
935.027	12.88
935.761	34.88
936.494	30.88
937.227	26.88
937.96	30.88
938.693	16.88
939.426	21.88
940.159	18.88
940.892	18.88
941.625	22.88
942.358	20.88
943.091	25.88
943.823	20.88
944.556	14.88
945.288	18.88
946.021	32.88
946.753	15.88
947.485	20.88
948.217	18.88
948.95	24.88
949.682	10.88
950.414	27.88
951.146	25.88
951.877	27.88
952.609	32.88
953.341	13.88
954.073	29.88
954.804	17.88
955.536	26.88
956.267	11.88
956.998	11.88
957.73	14.88
958.461	28.88
959.192	26.88
959.923	34.88
960.654	25.88
961.385	8.88
962.116	13.88
962.847	29.88
963.578	18.88
964.308	32.88
965.039	16.88
965.769	12.88
966.5	29.88
967.23	16.88
967.961	7.88
968.691	23.88
969.421	10.88
970.151	17.88
970.881	30.88
971.611	31.88
972.341	30.88
973.071	24.88
973.801	32.88
974.53	17.88
975.26	25.88
975.99	12.88
976.719	19.88
977.448	23.88
978.178	25.88
978.907	30.88
979.636	32.88
980.365	21.88
981.095	12.88
981.824	25.88
982.553	23.88
983.281	6.88
984.01	-0.12
984.739	-1.12
985.468	-0.12
986.196	-6.12
986.925	35.88
987.653	17.88
988.382	12.88
989.11	23.88
989.838	22.88
990.566	9.88
991.295	19.88
992.023	20.88
992.751	20.88
993.478	21.88
994.206	29.88
994.934	14.88
995.662	1.88
996.389	3.88
997.117	-5.12
997.845	6.88
