Data from Sample_Bg_Subt2_003.txt Node
Date: Tue Aug 27 12:41:46 EDT 2019
User: wcc
Spectrometer: QEPB0759
Trigger mode: 0
Integration Time (sec): 1.000000E0
Scans to average: 1
Electric dark correction enabled: true
Nonlinearity correction enabled: false
Boxcar width: 0
XAxis mode: Wavelengths
Number of Pixels in Spectrum: 1044
>>>>>Begin Spectral Data<<<<<
197.938	25.88
198.749	31.88
199.559	18.88
200.369	20.88
201.179	17.88
201.988	17.88
202.798	25.88
203.608	4.88
204.417	25.88
205.227	17.88
206.036	18.88
206.846	28.88
207.655	19.88
208.464	17.88
209.273	22.88
210.082	20.88
210.891	28.88
211.7	19.88
212.508	25.88
213.317	13.88
214.125	11.88
214.934	22.88
215.742	15.88
216.55	20.88
217.359	20.88
218.167	21.88
218.975	19.88
219.782	21.88
220.59	14.88
221.398	9.88
222.206	13.88
223.013	32.88
223.82	32.88
224.628	22.88
225.435	23.88
226.242	15.88
227.049	9.88
227.856	9.88
228.663	29.88
229.47	14.88
230.277	24.88
231.083	31.88
231.89	14.88
232.696	18.88
233.502	22.88
234.309	33.88
235.115	24.88
235.921	16.88
236.727	26.88
237.533	10.88
238.339	17.88
239.144	21.88
239.95	23.88
240.756	15.88
241.561	18.88
242.366	30.88
243.172	29.88
243.977	25.88
244.782	20.88
245.587	20.88
246.392	20.88
247.197	9.88
248.001	32.88
248.806	31.88
249.611	21.88
250.415	30.88
251.219	19.88
252.024	15.88
252.828	24.88
253.632	18.88
254.436	26.88
255.24	30.88
256.044	15.88
256.848	13.88
257.651	12.88
258.455	36.88
259.258	26.88
260.062	1137.88
260.865	23.88
261.668	27.88
262.471	11.88
263.274	13.88
264.077	11.88
264.88	10.88
265.683	24.88
266.486	5.88
267.288	15.88
268.091	35.88
268.893	31.88
269.696	22.88
270.498	22.88
271.3	10.88
272.102	27.88
272.904	19.88
273.706	14.88
274.508	13.88
275.309	32.88
276.111	26.88
276.913	17.88
277.714	24.88
278.515	17.88
279.317	20.88
280.118	16.88
280.919	18.88
281.72	21.88
282.521	21.88
283.322	18.88
284.122	18.88
284.923	9.88
285.724	12.88
286.524	29.88
287.325	36.88
288.125	5.88
288.925	29.88
289.725	-1.12
290.525	22.88
291.325	10.88
292.125	10.88
292.925	24.88
293.724	27.88
294.524	15.88
295.324	24.88
296.123	6.88
296.922	34.88
297.722	28.88
298.521	25.88
299.32	24.88
300.119	19.88
300.918	19.88
301.716	13.88
302.515	23.88
303.314	20.88
304.112	21.88
304.911	24.88
305.709	30.88
306.507	19.88
307.306	14.88
308.104	20.88
308.902	28.88
309.7	20.88
310.498	24.88
311.295	21.88
312.093	29.88
312.891	15.88
313.688	36.88
314.485	14.88
315.283	26.88
316.08	19.88
316.877	26.88
317.674	14.88
318.471	26.88
319.268	23.88
320.065	10.88
320.862	22.88
321.658	28.88
322.455	28.88
323.251	11.88
324.047	38.88
324.844	14.88
325.64	15.88
326.436	24.88
327.232	17.88
328.028	33.88
328.824	33.88
329.62	21.88
330.415	18.88
331.211	16.88
332.006	22.88
332.802	26.88
333.597	25.88
334.392	28.88
335.187	28.88
335.982	33.88
336.777	22.88
337.572	18.88
338.367	24.88
339.162	22.88
339.956	9.88
340.751	19.88
341.545	25.88
342.34	19.88
343.134	14.88
343.928	25.88
344.722	14.88
345.516	24.88
346.31	12.88
347.104	29.88
347.898	20.88
348.691	16.88
349.485	18.88
350.278	14.88
351.072	25.88
351.865	187.88
352.658	29.88
353.452	2.88
354.245	23.88
355.038	14.88
355.83	23.88
356.623	34.88
357.416	19.88
358.209	19.88
359.001	11.88
359.794	23.88
360.586	40.88
361.378	22.88
362.17	8.88
362.963	17.88
363.755	18.88
364.546	10.88
365.338	29.88
366.13	35.88
366.922	13.88
367.713	16.88
368.505	24.88
369.296	29.88
370.088	21.88
370.879	17.88
371.67	14.88
372.461	20.88
373.252	14.88
374.043	16.88
374.834	17.88
375.625	36.88
376.415	11.88
377.206	9.88
377.996	37.88
378.787	29.88
379.577	20.88
380.367	13.88
381.157	17.88
381.947	24.88
382.737	9.88
383.527	22.88
384.317	31.88
385.107	25.88
385.896	9.88
386.686	13.88
387.475	34.88
388.265	20.88
389.054	25.88
389.843	12.88
390.632	24.88
391.421	18.88
392.21	20.88
392.999	18.88
393.788	27.88
394.576	19.88
395.365	24.88
396.154	5.88
396.942	19.88
397.73	25.88
398.519	24.88
399.307	17.88
400.095	21.88
400.883	17.88
401.671	25.88
402.459	18.88
403.246	9.88
404.034	39.88
404.822	23.88
405.609	20.88
406.396	21.88
407.184	29.88
407.971	26.88
408.758	12.88
409.545	19.88
410.332	27.88
411.119	35.88
411.906	16.88
412.693	28.88
413.479	36.88
414.266	23.88
415.052	9.88
415.839	25.88
416.625	19.88
417.411	23.88
418.197	24.88
418.983	33.88
419.769	23.88
420.555	19.88
421.341	24.88
422.127	26.88
422.912	37.88
423.698	18.88
424.483	4.88
425.269	41.88
426.054	10.88
426.839	20.88
427.624	17.88
428.409	34.88
429.194	22.88
429.979	26.88
430.764	31.88
431.549	30.88
432.333	37.88
433.118	23.88
433.902	23.88
434.687	19.88
435.471	13.88
436.255	9.88
437.039	26.88
437.823	23.88
438.607	23.88
439.391	32.88
440.175	4.88
440.958	35.88
441.742	31.88
442.526	21.88
443.309	19.88
444.092	37.88
444.876	31.88
445.659	34.88
446.442	19.88
447.225	10.88
448.008	21.88
448.791	39.88
449.573	27.88
450.356	34.88
451.139	29.88
451.921	22.88
452.704	16.88
453.486	33.88
454.268	31.88
455.05	15.88
455.833	31.88
456.615	29.88
457.396	31.88
458.178	27.88
458.96	34.88
459.742	35.88
460.523	32.88
461.305	26.88
462.086	47.88
462.868	29.88
463.649	34.88
464.43	27.88
465.211	40.88
465.992	43.88
466.773	47.88
467.554	23.88
468.335	28.88
469.115	24.88
469.896	21.88
470.676	27.88
471.457	28.88
472.237	27.88
473.018	2.88
473.798	28.88
474.578	30.88
475.358	26.88
476.138	27.88
476.918	24.88
477.697	11.88
478.477	28.88
479.257	18.88
480.036	18.88
480.816	9.88
481.595	30.88
482.374	15.88
483.153	32.88
483.932	27.88
484.711	3.88
485.49	24.88
486.269	25.88
487.048	21.88
487.827	9.88
488.605	10.88
489.384	10.88
490.162	10.88
490.941	5.88
491.719	21.88
492.497	11.88
493.275	16.88
494.053	6.88
494.831	14.88
495.609	24.88
496.387	22.88
497.164	5.88
497.942	24.88
498.72	25.88
499.497	15.88
500.274	13.88
501.052	19.88
501.829	30.88
502.606	15.88
503.383	26.88
504.16	25.88
504.937	27.88
505.714	27.88
506.49	28.88
507.267	19.88
508.043	31.88
508.82	29.88
509.596	20.88
510.373	7.88
511.149	27.88
511.925	24.88
512.701	10.88
513.477	26.88
514.253	13.88
515.029	21.88
515.804	32.88
516.58	18.88
517.356	18.88
518.131	17.88
518.906	25.88
519.682	6.88
520.457	15.88
521.232	11.88
522.007	24.88
522.782	18.88
523.557	14.88
524.332	15.88
525.107	26.88
525.881	23.88
526.656	23.88
527.43	34.88
528.205	16.88
528.979	19.88
529.753	26.88
530.527	28.88
531.302	9.88
532.076	15.88
532.849	9.88
533.623	22.88
534.397	8.88
535.171	27.88
535.944	27.88
536.718	13.88
537.491	24.88
538.265	19.88
539.038	18.88
539.811	18.88
540.584	14.88
541.357	16.88
542.13	32.88
542.903	17.88
543.676	13.88
544.449	15.88
545.221	0.88
545.994	17.88
546.766	8.88
547.539	0.88
548.311	29.88
549.083	20.88
549.855	10.88
550.627	14.88
551.399	17.88
552.171	12.88
552.943	21.88
553.715	19.88
554.486	23.88
555.258	6.88
556.029	26.88
556.801	21.88
557.572	28.88
558.343	21.88
559.114	11.88
559.886	22.88
560.657	15.88
561.427	17.88
562.198	15.88
562.969	24.88
563.74	31.88
564.51	12.88
565.281	22.88
566.051	21.88
566.822	12.88
567.592	19.88
568.362	10.88
569.132	25.88
569.902	23.88
570.672	18.88
571.442	19.88
572.212	21.88
572.982	23.88
573.751	13.88
574.521	33.88
575.29	16.88
576.06	18.88
576.829	4.88
577.598	13.88
578.367	16.88
579.136	5.88
579.905	14.88
580.674	18.88
581.443	31.88
582.212	20.88
582.981	27.88
583.749	10.88
584.518	33.88
585.286	16.88
586.054	23.88
586.823	19.88
587.591	6.88
588.359	21.88
589.127	8.88
589.895	27.88
590.663	13.88
591.431	19.88
592.198	18.88
592.966	29.88
593.734	20.88
594.501	19.88
595.268	34.88
596.036	34.88
596.803	28.88
597.57	15.88
598.337	18.88
599.104	26.88
599.871	20.88
600.638	30.88
601.405	24.88
602.171	34.88
602.938	32.88
603.704	30.88
604.471	28.88
605.237	33.88
606.004	20.88
606.77	24.88
607.536	31.88
608.302	24.88
609.068	29.88
609.834	30.88
610.599	28.88
611.365	24.88
612.131	31.88
612.896	43.88
613.662	22.88
614.427	27.88
615.193	34.88
615.958	27.88
616.723	26.88
617.488	30.88
618.253	25.88
619.018	36.88
619.783	31.88
620.548	46.88
621.312	35.88
622.077	52.88
622.842	40.88
623.606	41.88
624.37	22.88
625.135	22.88
625.899	47.88
626.663	28.88
627.427	50.88
628.191	37.88
628.955	45.88
629.719	39.88
630.483	36.88
631.246	32.88
632.01	21.88
632.773	48.88
633.537	46.88
634.3	28.88
635.063	29.88
635.827	41.88
636.59	29.88
637.353	25.88
638.116	53.88
638.879	38.88
639.641	39.88
640.404	47.88
641.167	35.88
641.929	40.88
642.692	36.88
643.454	35.88
644.216	45.88
644.979	40.88
645.741	42.88
646.503	40.88
647.265	48.88
648.027	42.88
648.789	42.88
649.551	43.88
650.312	35.88
651.074	44.88
651.835	41.88
652.597	44.88
653.358	44.88
654.12	46.88
654.881	45.88
655.642	32.88
656.403	43.88
657.164	38.88
657.925	33.88
658.686	44.88
659.447	51.88
660.207	48.88
660.968	42.88
661.728	44.88
662.489	34.88
663.249	48.88
664.01	33.88
664.77	39.88
665.53	43.88
666.29	36.88
667.05	54.88
667.81	33.88
668.57	51.88
669.329	38.88
670.089	39.88
670.849	38.88
671.608	52.88
672.368	47.88
673.127	36.88
673.886	42.88
674.646	38.88
675.405	38.88
676.164	46.88
676.923	41.88
677.682	34.88
678.44	37.88
679.199	42.88
679.958	23.88
680.717	28.88
681.475	42.88
682.233	46.88
682.992	37.88
683.75	46.88
684.508	40.88
685.266	46.88
686.024	42.88
686.782	39.88
687.54	45.88
688.298	50.88
689.056	30.88
689.814	38.88
690.571	58.88
691.329	45.88
692.086	45.88
692.843	29.88
693.601	39.88
694.358	46.88
695.115	40.88
695.872	42.88
696.629	38.88
697.386	42.88
698.143	47.88
698.9	45.88
699.656	40.88
700.413	22.88
701.169	44.88
701.926	36.88
702.682	51.88
703.438	42.88
704.195	35.88
704.951	38.88
705.707	39.88
706.463	38.88
707.219	26.88
707.974	35.88
708.73	32.88
709.486	32.88
710.241	30.88
710.997	33.88
711.752	50.88
712.508	34.88
713.263	35.88
714.018	26.88
714.773	42.88
715.528	32.88
716.283	32.88
717.038	31.88
717.793	42.88
718.548	26.88
719.303	41.88
720.057	31.88
720.812	23.88
721.566	33.88
722.321	28.88
723.075	32.88
723.829	37.88
724.583	35.88
725.337	41.88
726.091	26.88
726.845	25.88
727.599	30.88
728.353	34.88
729.106	26.88
729.86	24.88
730.614	17.88
731.367	40.88
732.12	36.88
732.874	33.88
733.627	41.88
734.38	33.88
735.133	21.88
735.886	18.88
736.639	24.88
737.392	28.88
738.145	30.88
738.897	19.88
739.65	17.88
740.403	36.88
741.155	34.88
741.907	42.88
742.66	29.88
743.412	23.88
744.164	35.88
744.916	33.88
745.668	19.88
746.42	31.88
747.172	29.88
747.924	22.88
748.676	26.88
749.427	25.88
750.179	16.88
750.93	30.88
751.682	23.88
752.433	19.88
753.184	25.88
753.935	34.88
754.687	21.88
755.438	29.88
756.189	23.88
756.939	18.88
757.69	20.88
758.441	36.88
759.192	23.88
759.942	29.88
760.693	33.88
761.443	40.88
762.194	23.88
762.944	17.88
763.694	27.88
764.444	14.88
765.194	21.88
765.944	19.88
766.694	25.88
767.444	31.88
768.194	25.88
768.943	16.88
769.693	9.88
770.443	11.88
771.192	38.88
771.941	17.88
772.691	20.88
773.44	17.88
774.189	18.88
774.938	11.88
775.687	19.88
776.436	15.88
777.185	25.88
777.934	22.88
778.683	24.88
779.431	32.88
780.18	25.88
780.928	16.88
781.677	19.88
782.425	20.88
783.173	13.88
783.922	21.88
784.67	11.88
785.418	22.88
786.166	38.88
786.914	16.88
787.661	7.88
788.409	28.88
789.157	26.88
789.904	15.88
790.652	10.88
791.399	14.88
792.147	30.88
792.894	19.88
793.641	20.88
794.388	120.88
795.136	9.88
795.883	17.88
796.629	14.88
797.376	24.88
798.123	22.88
798.87	27.88
799.616	31.88
800.363	26.88
801.109	16.88
801.856	34.88
802.602	7.88
803.349	20.88
804.095	23.88
804.841	15.88
805.587	32.88
806.333	21.88
807.079	29.88
807.825	28.88
808.57	24.88
809.316	25.88
810.062	18.88
810.807	24.88
811.553	33.88
812.298	33.88
813.043	32.88
813.788	25.88
814.534	12.88
815.279	20.88
816.024	22.88
816.769	31.88
817.514	20.88
818.258	19.88
819.003	30.88
819.748	397.88
820.492	18.88
821.237	108.88
821.981	9.88
822.726	27.88
823.47	12.88
824.214	10.88
824.958	26.88
825.702	19.88
826.446	19.88
827.19	27.88
827.934	23.88
828.678	13.88
829.421	19.88
830.165	24.88
830.909	21.88
831.652	7.88
832.395	21.88
833.139	24.88
833.882	27.88
834.625	22.88
835.368	26.88
836.111	14.88
836.854	21.88
837.597	23.88
838.34	17.88
839.083	24.88
839.825	22.88
840.568	12.88
841.311	14.88
842.053	29.88
842.795	18.88
843.538	19.88
844.28	13.88
845.022	-0.12
845.764	16.88
846.506	2.88
847.248	22.88
847.99	25.88
848.732	17.88
849.474	18.88
850.215	5.88
850.957	18.88
851.698	20.88
852.44	20.88
853.181	26.88
853.922	20.88
854.664	6.88
855.405	26.88
856.146	32.88
856.887	28.88
857.628	21.88
858.369	7.88
859.109	20.88
859.85	14.88
860.591	16.88
861.331	29.88
862.072	16.88
862.812	9.88
863.553	18.88
864.293	27.88
865.033	21.88
865.773	25.88
866.513	27.88
867.253	15.88
867.993	14.88
868.733	23.88
869.473	8.88
870.213	23.88
870.952	23.88
871.692	23.88
872.431	25.88
873.171	22.88
873.91	26.88
874.649	12.88
875.388	34.88
876.128	25.88
876.867	15.88
877.606	21.88
878.345	30.88
879.083	19.88
879.822	10.88
880.561	27.88
881.299	27.88
882.038	22.88
882.777	11.88
883.515	19.88
884.253	21.88
884.992	28.88
885.73	17.88
886.468	13.88
887.206	28.88
887.944	33.88
888.682	17.88
889.42	24.88
890.157	24.88
890.895	22.88
891.633	25.88
892.37	37.88
893.108	29.88
893.845	23.88
894.583	10.88
895.32	29.88
896.057	13.88
896.794	25.88
897.531	28.88
898.268	6.88
899.005	20.88
899.742	28.88
900.479	16.88
901.215	11.88
901.952	27.88
902.689	27.88
903.425	19.88
904.162	2.88
904.898	21.88
905.634	11.88
906.37	23.88
907.106	25.88
907.843	19.88
908.579	21.88
909.314	14.88
910.05	26.88
910.786	32.88
911.522	8.88
912.257	12.88
912.993	17.88
913.728	6.88
914.464	24.88
915.199	16.88
915.935	28.88
916.67	28.88
917.405	14.88
918.14	23.88
918.875	27.88
919.61	32.88
920.345	31.88
921.08	26.88
921.814	10.88
922.549	14.88
923.284	-1.12
924.018	17.88
924.752	18.88
925.487	25.88
926.221	29.88
926.955	10.88
927.69	14.88
928.424	27.88
929.158	25.88
929.892	12.88
930.625	21.88
931.359	23.88
932.093	18.88
932.827	22.88
933.56	28.88
934.294	10.88
935.027	20.88
935.761	28.88
936.494	20.88
937.227	22.88
937.96	26.88
938.693	29.88
939.426	14.88
940.159	2.88
940.892	11.88
941.625	8.88
942.358	16.88
943.091	32.88
943.823	21.88
944.556	23.88
945.288	31.88
946.021	23.88
946.753	29.88
947.485	26.88
948.217	18.88
948.95	25.88
949.682	13.88
950.414	14.88
951.146	24.88
951.877	22.88
952.609	35.88
953.341	5.88
954.073	25.88
954.804	14.88
955.536	32.88
956.267	14.88
956.998	15.88
957.73	16.88
958.461	13.88
959.192	24.88
959.923	23.88
960.654	23.88
961.385	16.88
962.116	15.88
962.847	20.88
963.578	12.88
964.308	30.88
965.039	19.88
965.769	18.88
966.5	17.88
967.23	28.88
967.961	15.88
968.691	24.88
969.421	23.88
970.151	29.88
970.881	26.88
971.611	26.88
972.341	24.88
973.071	11.88
973.801	28.88
974.53	30.88
975.26	20.88
975.99	4.88
976.719	32.88
977.448	25.88
978.178	19.88
978.907	19.88
979.636	30.88
980.365	16.88
981.095	24.88
981.824	33.88
982.553	22.88
983.281	16.88
984.01	2.88
984.739	2.88
985.468	2.88
986.196	-4.12
986.925	37.88
987.653	24.88
988.382	10.88
989.11	10.88
989.838	21.88
990.566	24.88
991.295	2.88
992.023	13.88
992.751	29.88
993.478	15.88
994.206	34.88
994.934	17.88
995.662	-3.12
996.389	2.88
997.117	-4.12
997.845	-0.12
