Data from SampleKW32_Bg_Subt2_006.txt Node
Date: Fri Aug 23 09:23:13 EDT 2019
User: wcc
Spectrometer: QEPB0759
Trigger mode: 0
Integration Time (sec): 1.000000E0
Scans to average: 1
Electric dark correction enabled: true
Nonlinearity correction enabled: true
Boxcar width: 0
XAxis mode: Wavelengths
Number of Pixels in Spectrum: 1044
>>>>>Begin Spectral Data<<<<<
197.938	-14.22
198.749	-26.52
199.559	-23.45
200.369	-12.17
201.179	-8.07
201.988	-23.45
202.798	-25.5
203.608	-44.98
204.417	-41.9
205.227	-6.02
206.036	-15.25
206.846	-37.8
207.655	-26.52
208.464	-24.47
209.273	-20.37
210.082	-16.27
210.891	-28.58
211.7	-29.6
212.508	-27.55
213.317	-20.38
214.125	-21.4
214.934	-14.22
215.742	-12.17
216.55	-14.22
217.359	-16.28
218.167	-6.02
218.975	-34.72
219.782	-8.07
220.59	-25.5
221.398	-21.4
222.206	-23.44
223.013	-22.42
223.82	-26.53
224.628	-25.5
225.435	-17.3
226.242	-19.35
227.049	-27.55
227.856	-17.3
228.663	-15.25
229.47	-15.25
230.277	-17.3
231.083	-25.5
231.89	-21.4
232.696	-32.67
233.502	-11.15
234.309	-17.3
235.115	-21.4
235.921	-24.47
236.727	-24.48
237.533	-24.47
238.339	-51.12
239.144	-22.42
239.95	-16.27
240.756	-20.37
241.561	-30.62
242.366	-33.7
243.172	-28.57
243.977	-5
244.782	-43.95
245.587	-8.07
246.392	-15.25
247.197	-11.15
248.001	-3.97
248.806	-15.25
249.611	-20.37
250.415	-10.12
251.219	-13.2
252.024	-18.32
252.828	-14.22
253.632	-16.27
254.436	-5
255.24	-18.32
256.044	0.13
256.848	-11.15
257.651	-22.43
258.455	-39.85
259.258	-29.6
260.062	649.08
260.865	-26.52
261.668	-8.07
262.471	-26.53
263.274	-37.8
264.077	-13.2
264.88	-33.7
265.683	-11.15
266.486	-0.9
267.288	-14.22
268.091	4.23
268.893	-44.97
269.696	-16.27
270.498	-15.25
271.3	-36.77
272.102	-26.52
272.904	-39.85
273.706	-7.05
274.508	-12.17
275.309	-27.55
276.111	-19.35
276.913	-6.02
277.714	-24.48
278.515	-33.7
279.317	-17.3
280.118	-8.07
280.919	-29.6
281.72	-13.2
282.521	-25.5
283.322	-16.27
284.122	-15.25
284.923	-28.57
285.724	-24.48
286.524	-22.42
287.325	-25.5
288.125	-35.75
288.925	-26.53
289.725	-32.67
290.525	-36.77
291.325	-21.4
292.125	-18.32
292.925	-32.67
293.724	-20.38
294.524	-44.98
295.324	-14.22
296.123	-37.8
296.922	-28.57
297.722	-17.29
298.521	-21.4
299.32	-3.97
300.119	-27.55
300.918	-41.9
301.716	-11.15
302.515	-29.6
303.314	-23.45
304.112	-28.57
304.911	-34.72
305.709	-37.8
306.507	-14.22
307.306	-41.9
308.104	-24.47
308.902	-26.52
309.7	-37.8
310.498	-29.6
311.295	-17.3
312.093	-22.42
312.891	-30.62
313.688	-7.05
314.485	-22.42
315.283	-7.05
316.08	-20.37
316.877	-42.93
317.674	-34.73
318.471	-27.55
319.268	-19.35
320.065	-22.42
320.862	-38.82
321.658	-8.07
322.455	-6.02
323.251	-33.7
324.047	-29.6
324.844	-15.25
325.64	-10.12
326.436	-6.02
327.232	-40.88
328.028	-14.22
328.824	-20.38
329.62	-11.15
330.415	-19.34
331.211	-18.32
332.006	-21.4
332.802	-34.72
333.597	-35.75
334.392	-18.32
335.187	-27.55
335.982	-14.22
336.777	-8.07
337.572	-28.57
338.367	-16.27
339.162	-18.32
339.956	-14.22
340.751	-8.07
341.545	-35.75
342.34	-26.52
343.134	-15.25
343.928	-27.55
344.722	-17.3
345.516	-21.4
346.31	-24.47
347.104	-28.57
347.898	-10.12
348.691	-24.47
349.485	-6.02
350.278	-19.35
351.072	-21.4
351.865	-575.78
352.658	-20.37
353.452	-18.32
354.245	-27.55
355.038	-28.57
355.83	-12.17
356.623	-29.6
357.416	-22.42
358.209	-16.27
359.001	-24.47
359.794	-15.25
360.586	-34.72
361.378	-26.52
362.17	-23.45
362.963	-21.4
363.755	-18.32
364.546	-32.68
365.338	-24.47
366.13	-18.32
366.922	-25.5
367.713	-32.68
368.505	-22.42
369.296	-29.6
370.088	-5
370.879	-31.65
371.67	-29.6
372.461	-10.12
373.252	-20.37
374.043	-35.75
374.834	-28.58
375.625	-21.4
376.415	-25.5
377.206	-30.62
377.996	-28.57
378.787	-10.12
379.577	-24.48
380.367	-12.17
381.157	-23.45
381.947	-12.17
382.737	-25.5
383.527	-14.22
384.317	-12.17
385.107	-6.02
385.896	-17.3
386.686	-32.67
387.475	-42.92
388.265	-22.42
389.054	-15.24
389.843	-23.45
390.632	-15.25
391.421	-33.7
392.21	-27.55
392.999	-7.05
393.788	-20.37
394.576	-14.22
395.365	-28.57
396.154	-12.17
396.942	-33.7
397.73	-25.5
398.519	-31.65
399.307	-19.35
400.095	-32.67
400.883	-20.37
401.671	-9.1
402.459	-25.5
403.246	-31.65
404.034	-26.52
404.822	-24.47
405.609	-27.55
406.396	-20.37
407.184	-25.5
407.971	-10.12
408.758	-7.05
409.545	-17.3
410.332	-28.57
411.119	-9.1
411.906	-17.3
412.693	-35.75
413.479	-14.22
414.266	-25.5
415.052	-20.37
415.839	-6.02
416.625	-28.58
417.411	5.25
418.197	-19.35
418.983	-38.82
419.769	-21.4
420.555	-34.72
421.341	-2.95
422.127	-12.17
422.912	-30.62
423.698	-31.65
424.483	-32.67
425.269	-37.8
426.054	-21.4
426.839	-18.32
427.624	-14.22
428.409	-14.22
429.194	-5
429.979	-13.2
430.764	-12.17
431.549	-18.32
432.333	-27.55
433.118	-30.63
433.902	-38.82
434.687	-52.15
435.471	-51.12
436.255	-26.52
437.039	-15.25
437.823	-34.72
438.607	-16.27
439.391	-41.9
440.175	-20.37
440.958	-7.05
441.742	-20.37
442.526	-25.5
443.309	-34.72
444.092	-31.65
444.876	-22.42
445.659	-24.47
446.442	-41.9
447.225	-16.27
448.008	-23.45
448.791	-3.97
449.573	13.45
450.356	-16.27
451.139	-14.22
451.921	-7.05
452.704	-14.22
453.486	-26.52
454.268	-17.3
455.05	-12.17
455.833	-26.52
456.615	-13.2
457.396	-15.25
458.178	-18.32
458.96	-27.55
459.742	-29.6
460.523	-19.35
461.305	-20.37
462.086	-16.27
462.868	-36.77
463.649	-24.47
464.43	-14.22
465.211	-27.54
465.992	-26.53
466.773	-8.07
467.554	-24.47
468.335	-14.22
469.115	-7.05
469.896	-12.17
470.676	-17.3
471.457	-10.12
472.237	-18.32
473.018	-2.95
473.798	-14.22
474.578	-15.25
475.358	-18.32
476.138	-23.45
476.918	-19.35
477.697	-12.17
478.477	-9.1
479.257	-25.5
480.036	-25.5
480.816	-26.53
481.595	-31.65
482.374	-41.9
483.153	-40.87
483.932	-29.6
484.711	-46
485.49	-41.9
486.269	-27.55
487.048	-55.23
487.827	-49.07
488.605	-34.72
489.384	-52.15
490.162	-33.7
490.941	-32.67
491.719	-24.47
492.497	-47.03
493.275	-46
494.053	-27.55
494.831	-25.5
495.609	-31.65
496.387	-31.65
497.164	-38.82
497.942	-38.82
498.72	-23.45
499.497	-24.47
500.274	-11.15
501.052	-32.68
501.829	-27.55
502.606	-17.3
503.383	-39.85
504.16	-16.27
504.937	-26.52
505.714	-17.3
506.49	-23.45
507.267	-27.55
508.043	-46
508.82	-44.97
509.596	-18.33
510.373	-23.45
511.149	-19.35
511.925	-42.93
512.701	-18.32
513.477	-22.42
514.253	-19.35
515.029	-34.73
515.804	-39.85
516.58	-31.65
517.356	-21.4
518.131	-12.17
518.906	-13.2
519.682	-24.47
520.457	-34.72
521.232	-5
522.007	-28.57
522.782	-23.45
523.557	-19.35
524.332	-17.3
525.107	-22.42
525.881	-19.35
526.656	-19.35
527.43	-18.32
528.205	-36.78
528.979	-33.7
529.753	-20.38
530.527	-22.42
531.302	-26.53
532.076	-35.75
532.849	-20.37
533.623	-46
534.397	-31.65
535.171	-23.45
535.944	-29.6
536.718	-52.16
537.491	-23.44
538.265	-49.08
539.038	-46
539.811	-47.02
540.584	-67.53
541.357	-73.68
542.13	-83.91
542.903	-66.49
543.676	-83.93
544.449	-66.5
545.221	-84.95
545.994	-53.18
546.766	-42.92
547.539	-43.95
548.311	-54.2
549.083	-47.03
549.855	-38.83
550.627	-60.35
551.399	-51.12
552.171	-53.17
552.943	-33.7
553.715	-48.06
554.486	-21.4
555.258	-25.5
556.029	-30.63
556.801	-12.17
557.572	-33.7
558.343	-18.32
559.114	-27.55
559.886	-29.6
560.657	-29.6
561.427	-29.6
562.198	-40.88
562.969	-26.52
563.74	-25.5
564.51	-29.6
565.281	-44.97
566.051	-16.27
566.822	-22.42
567.592	-26.52
568.362	-18.32
569.132	-37.8
569.902	-35.74
570.672	-11.15
571.442	-42.92
572.212	-34.72
572.982	-24.47
573.751	-28.57
574.521	-17.3
575.29	-20.37
576.06	-33.7
576.829	-30.62
577.598	-28.58
578.367	-44.98
579.136	-41.9
579.905	-28.57
580.674	-36.77
581.443	-54.2
582.212	-43.95
582.981	-51.12
583.749	-50.1
584.518	-37.8
585.286	-33.69
586.054	-52.14
586.823	-31.65
587.591	-47.03
588.359	-35.74
589.127	-46
589.895	-51.12
590.663	-55.22
591.431	-43.95
592.198	-39.85
592.966	-30.62
593.734	-44.97
594.501	-34.72
595.268	-18.32
596.036	-37.79
596.803	-20.37
597.57	-30.62
598.337	-24.47
599.104	-47.03
599.871	-28.57
600.638	-25.5
601.405	-20.37
602.171	-11.15
602.938	-36.77
603.704	-17.3
604.471	-31.65
605.237	-26.52
606.004	-25.5
606.77	-28.57
607.536	-18.32
608.302	-36.77
609.068	-50.09
609.834	-61.37
610.599	-103.38
611.365	-59.32
612.131	-57.27
612.896	-31.64
613.662	-44.97
614.427	-30.62
615.193	-22.42
615.958	-30.62
616.723	-26.52
617.488	-11.15
618.253	-0.9
619.018	-20.37
619.783	-22.42
620.548	-19.35
621.312	-23.45
622.077	-7.05
622.842	-20.37
623.606	-23.44
624.37	-8.07
625.135	-10.12
625.899	-15.25
626.663	-14.22
627.427	-15.25
628.191	5.25
628.955	-37.79
629.719	-13.2
630.483	-26.52
631.246	-27.55
632.01	-20.37
632.773	-14.22
633.537	-5
634.3	-3.97
635.063	-1.92
635.827	4.23
636.59	-10.12
637.353	-11.15
638.116	3.2
638.879	-1.92
639.641	-0.9
640.404	3.2
641.167	0.13
641.929	-9.1
642.692	-3.97
643.454	-9.1
644.216	-11.15
644.979	-12.17
645.741	1.15
646.503	-11.15
647.265	7.3
648.027	-11.15
648.789	-10.12
649.551	-3.97
650.312	-8.07
651.074	-6.02
651.835	-10.12
652.597	1.15
653.358	-19.35
654.12	12.43
654.881	0.13
655.642	-17.3
656.403	-0.9
657.164	-10.12
657.925	-6.02
658.686	-8.07
659.447	10.38
660.207	1.15
660.968	0.13
661.728	-9.1
662.489	-5
663.249	14.48
664.01	-5
664.77	-1.92
665.53	27.8
666.29	-19.35
667.05	0.13
667.81	9.35
668.57	8.33
669.329	-7.05
670.089	-15.25
670.849	-11.15
671.608	8.33
672.368	3.2
673.127	14.48
673.886	9.35
674.646	6.28
675.405	10.38
676.164	13.45
676.923	7.3
677.682	-6.02
678.44	6.28
679.199	6.28
679.958	-29.59
680.717	-7.05
681.475	-2.95
682.233	17.55
682.992	1.15
683.75	2.18
684.508	0.13
685.266	11.4
686.024	6.28
686.782	10.38
687.54	1.15
688.298	-10.12
689.056	-0.9
689.814	4.23
690.571	-7.05
691.329	-1.92
692.086	-0.9
692.843	3.2
693.601	12.43
694.358	7.3
695.115	17.56
695.872	3.2
696.629	-10.12
697.386	-6.02
698.143	9.35
698.9	4.23
699.656	12.43
700.413	-1.92
701.169	-5
701.926	-1.92
702.682	7.3
703.438	17.55
704.195	1.15
704.951	-6.02
705.707	-21.4
706.463	-8.07
707.219	4.23
707.974	-27.55
708.73	-37.8
709.486	-10.12
710.241	3.2
710.997	-20.37
711.752	-29.6
712.508	-11.15
713.263	-3.97
714.018	11.4
714.773	1.15
715.528	-2.95
716.283	-1.92
717.038	-5
717.793	-14.22
718.548	-10.12
719.303	10.38
720.057	-16.27
720.812	-14.22
721.566	-1.92
722.321	-23.45
723.075	-5
723.829	-31.65
724.583	-15.25
725.337	-17.3
726.091	-3.97
726.845	-8.07
727.599	-21.4
728.353	-9.1
729.106	-17.3
729.86	-15.25
730.614	-19.35
731.367	37.73
732.12	-10.12
732.874	-13.2
733.627	-10.12
734.38	-20.37
735.133	-19.35
735.886	-2.95
736.639	-28.57
737.392	-31.65
738.145	-16.27
738.897	-5
739.65	11.4
740.403	-13.2
741.155	-16.27
741.907	-14.22
742.66	-24.47
743.412	-13.2
744.164	-18.32
744.916	-7.05
745.668	-28.57
746.42	-34.72
747.172	-12.17
747.924	-9.1
748.676	-23.45
749.427	-26.52
750.179	-15.25
750.93	-8.07
751.682	-3.97
752.433	-28.57
753.184	-38.82
753.935	-14.22
754.687	-17.3
755.438	-37.8
756.189	-20.37
756.939	-27.55
757.69	-21.4
758.441	-8.07
759.192	-13.2
759.942	-7.05
760.693	-26.52
761.443	-19.35
762.194	-19.35
762.944	-15.25
763.694	-22.42
764.444	-21.4
765.194	-15.25
765.944	-21.4
766.694	-31.65
767.444	-8.07
768.194	-16.27
768.943	-20.38
769.693	-41.9
770.443	-26.52
771.192	-36.77
771.941	-14.23
772.691	-39.85
773.44	-17.3
774.189	-14.22
774.938	-27.55
775.687	-29.6
776.436	-40.87
777.185	-28.57
777.934	-26.53
778.683	-26.52
779.431	-24.47
780.18	-25.5
780.928	-18.32
781.677	-32.67
782.425	-13.2
783.173	-37.8
783.922	-35.75
784.67	-30.62
785.418	-23.45
786.166	-29.6
786.914	-9.1
787.661	-21.4
788.409	-34.72
789.157	-19.35
789.904	-22.42
790.652	-16.27
791.399	-33.7
792.147	-29.6
792.894	-18.32
793.641	-20.37
794.388	-87.37
795.136	2.18
795.883	10.38
796.629	-25.5
797.376	-29.6
798.123	-10.12
798.87	-11.15
799.616	-35.75
800.363	-9.1
801.109	-29.59
801.856	-37.8
802.602	-22.43
803.349	-21.4
804.095	-18.32
804.841	-24.47
805.587	-20.37
806.333	-28.57
807.079	-12.17
807.825	-8.07
808.57	-31.65
809.316	-23.44
810.062	-34.72
810.807	-23.45
811.553	-3.97
812.298	-25.5
813.043	-25.5
813.788	-17.3
814.534	-13.2
815.279	-18.32
816.024	-28.57
816.769	-20.37
817.514	-30.62
818.258	-27.55
819.003	-27.54
819.748	-433.32
820.492	-6.02
821.237	-89.49
821.981	-18.32
822.726	-33.7
823.47	-29.59
824.214	-17.3
824.958	-44.97
825.702	-34.72
826.446	-37.8
827.19	-6.02
827.934	-23.44
828.678	-15.25
829.421	-15.25
830.165	-39.85
830.909	-16.27
831.652	-32.67
832.395	-20.37
833.139	-16.27
833.882	-32.67
834.625	-16.27
835.368	-21.4
836.111	-17.3
836.854	-40.87
837.597	-23.45
838.34	-21.4
839.083	-19.35
839.825	-19.35
840.568	-10.12
841.311	-23.45
842.053	-26.52
842.795	-3.97
843.538	-20.37
844.28	-24.48
845.022	-21.4
845.764	-27.54
846.506	-8.07
847.248	-49.08
847.99	-39.85
848.732	-19.35
849.474	-22.42
850.215	-17.3
850.957	-23.45
851.698	-22.42
852.44	-17.3
853.181	-33.7
853.922	-16.27
854.664	-15.25
855.405	-33.69
856.146	-15.25
856.887	-28.57
857.628	-35.74
858.369	-23.45
859.109	-41.89
859.85	-32.68
860.591	-25.5
861.331	-31.65
862.072	-21.4
862.812	-33.71
863.553	-13.2
864.293	-43.95
865.033	-17.3
865.773	-12.17
866.513	-3.97
867.253	-14.22
867.993	-18.32
868.733	-28.57
869.473	-21.4
870.213	-39.84
870.952	-29.6
871.692	-32.67
872.431	-1.92
873.171	-17.3
873.91	-1.92
874.649	-14.22
875.388	-14.22
876.128	-26.52
876.867	-33.7
877.606	-42.93
878.345	-33.7
879.083	-18.32
879.822	-27.55
880.561	-36.77
881.299	-21.4
882.038	-13.2
882.777	-11.15
883.515	-24.47
884.253	-50.53
884.992	-25.5
885.73	-25.5
886.468	1.15
887.206	-13.2
887.944	-21.4
888.682	-27.55
889.42	-23.45
890.157	-14.22
890.895	-11.15
891.633	-37.76
892.37	-34.72
893.108	-38.82
893.845	-24.47
894.583	-29.6
895.32	-6.02
896.057	-23.45
896.794	-1.92
897.531	-40.87
898.268	-24.47
899.005	-36.78
899.742	-10.12
900.479	-27.55
901.215	-33.7
901.952	-32.68
902.689	-14.22
903.425	-27.55
904.162	-8.07
904.898	-28.57
905.634	-2.95
906.37	-22.42
907.106	-19.35
907.843	-23.45
908.579	-18.32
909.314	-5
910.05	-21.4
910.786	-40.88
911.522	-30.63
912.257	-42.92
912.993	-19.35
913.728	-6.02
914.464	-36.78
915.199	-17.3
915.935	-16.28
916.67	-39.85
917.405	-36.77
918.14	-29.6
918.875	-22.42
919.61	-17.3
920.345	-22.42
921.08	-42.92
921.814	-34.73
922.549	-19.35
923.284	-12.17
924.018	-13.2
924.752	-34.72
925.487	-12.17
926.221	-7.05
926.955	-23.45
927.69	-15.25
928.424	-17.3
929.158	-34.72
929.892	-35.75
930.625	-1.92
931.359	-6.02
932.093	-1.92
932.827	-14.22
933.56	-15.25
934.294	-13.2
935.027	-22.42
935.761	-19.35
936.494	-7.05
937.227	-24.47
937.96	-21.4
938.693	-35.75
939.426	-19.35
940.159	-33.7
940.892	-24.47
941.625	-26.52
942.358	-31.65
943.091	-30.63
943.823	-28.58
944.556	-24.48
945.288	-2.95
946.021	-24.47
946.753	-27.55
947.485	-12.17
948.217	3.2
948.95	-35.75
949.682	-18.33
950.414	-20.38
951.146	-27.55
951.877	-19.35
952.609	0.13
953.341	-21.4
954.073	-30.62
954.804	-31.65
955.536	-26.52
956.267	-30.62
956.998	6.28
957.73	-32.68
958.461	-33.7
959.192	-9.1
959.923	-18.32
960.654	-5
961.385	-1.92
962.116	-24.47
962.847	-16.27
963.578	-18.32
964.308	-32.68
965.039	-18.33
965.769	-25.5
966.5	-26.52
967.23	-20.37
967.961	-9.1
968.691	-15.25
969.421	-16.28
970.151	-35.75
970.881	-31.65
971.611	-31.65
972.341	-21.4
973.071	-28.57
973.801	-22.42
974.53	-19.35
975.26	-24.47
975.99	-31.65
976.719	-23.45
977.448	-8.07
978.178	-22.42
978.907	-9.1
979.636	-18.33
980.365	-15.25
981.095	-23.45
981.824	-28.57
982.553	-20.37
983.281	-19.35
984.01	5.26
984.739	4.23
985.468	-13.21
986.196	-3.98
986.925	-27.54
987.653	-16.27
988.382	-19.35
989.11	-29.6
989.838	-3.97
990.566	-9.1
991.295	-31.65
992.023	-22.42
992.751	-25.5
993.478	-20.37
994.206	-23.45
994.934	-20.37
995.662	-5
996.389	-0.9
997.117	-5
997.845	18.6
