Data from SampleKW32_Bg_Subt2_011.txt Node
Date: Fri Aug 23 09:23:21 EDT 2019
User: wcc
Spectrometer: QEPB0759
Trigger mode: 0
Integration Time (sec): 1.000000E0
Scans to average: 1
Electric dark correction enabled: true
Nonlinearity correction enabled: true
Boxcar width: 0
XAxis mode: Wavelengths
Number of Pixels in Spectrum: 1044
>>>>>Begin Spectral Data<<<<<
197.938	-11.28
198.749	-16.4
199.559	-17.43
200.369	-14.35
201.179	-7.18
201.988	-25.63
202.798	-16.4
203.608	-23.58
204.417	-28.7
205.227	3.08
206.036	-12.3
206.846	-26.65
207.655	-24.6
208.464	-16.4
209.273	-15.37
210.082	-11.28
210.891	-23.58
211.7	-29.73
212.508	-32.8
213.317	-7.18
214.125	-22.55
214.934	-8.2
215.742	-26.65
216.55	-16.4
217.359	-25.63
218.167	-11.28
218.975	-16.4
219.782	-8.2
220.59	-19.48
221.398	-18.45
222.206	-14.35
223.013	-7.18
223.82	-15.38
224.628	-24.6
225.435	-4.1
226.242	-24.6
227.049	-20.5
227.856	-14.35
228.663	-15.38
229.47	-16.4
230.277	-16.4
231.083	-21.53
231.89	-23.58
232.696	-24.6
233.502	-19.48
234.309	-28.7
235.115	-11.28
235.921	-31.78
236.727	-14.35
237.533	-34.85
238.339	-49.2
239.144	-16.4
239.95	-27.67
240.756	-22.55
241.561	-30.75
242.366	-25.63
243.172	-10.25
243.977	-21.52
244.782	-23.58
245.587	-15.38
246.392	-6.15
247.197	-19.48
248.001	-20.5
248.806	-26.65
249.611	-26.65
250.415	-17.43
251.219	-30.75
252.024	-26.65
252.828	-25.63
253.632	-12.3
254.436	5.13
255.24	-30.75
256.044	1.03
256.848	-13.33
257.651	-23.58
258.455	-25.63
259.258	-25.63
260.062	-67.76
260.865	-21.53
261.668	-18.45
262.471	-26.65
263.274	-32.8
264.077	-21.53
264.88	-29.73
265.683	-17.43
266.486	-8.2
267.288	-12.3
268.091	11.28
268.893	-43.05
269.696	-17.43
270.498	-27.68
271.3	-29.73
272.102	-27.67
272.904	-33.83
273.706	0
274.508	-1.03
275.309	-41
276.111	-1.03
276.913	5.13
277.714	-7.18
278.515	-39.98
279.317	-15.38
280.118	0
280.919	-21.53
281.72	-17.43
282.521	-25.63
283.322	-17.43
284.122	-24.6
284.923	-36.9
285.724	-17.43
286.524	-17.43
287.325	-33.82
288.125	-28.7
288.925	-15.38
289.725	-41
290.525	-23.57
291.325	-20.5
292.125	-20.5
292.925	-24.6
293.724	-15.38
294.524	-18.45
295.324	-14.35
296.123	-25.63
296.922	-19.48
297.722	3.07
298.521	-15.38
299.32	-15.37
300.119	-24.6
300.918	-32.8
301.716	-15.37
302.515	-34.85
303.314	-22.55
304.112	-25.63
304.911	-28.7
305.709	-17.43
306.507	-20.5
307.306	-30.75
308.104	-20.5
308.902	-15.38
309.7	-26.65
310.498	-29.72
311.295	-24.6
312.093	-27.68
312.891	-25.62
313.688	-23.58
314.485	-9.23
315.283	-23.57
316.08	-10.25
316.877	-43.05
317.674	-14.35
318.471	-8.2
319.268	-13.33
320.065	-13.33
320.862	-41
321.658	-10.25
322.455	2.05
323.251	-42.03
324.047	-17.43
324.844	-23.57
325.64	-24.6
326.436	-7.18
327.232	-29.73
328.028	-25.63
328.824	-17.43
329.62	-14.35
330.415	-21.52
331.211	-20.5
332.006	-18.45
332.802	-24.6
333.597	-14.35
334.392	-8.2
335.187	-13.32
335.982	-8.2
336.777	4.1
337.572	-19.48
338.367	-24.6
339.162	-22.55
339.956	-7.18
340.751	-15.38
341.545	-18.45
342.34	-35.88
343.134	-21.53
343.928	-18.45
344.722	-19.47
345.516	-19.48
346.31	-34.85
347.104	-31.78
347.898	-24.6
348.691	-31.78
349.485	-12.3
350.278	-30.75
351.072	-14.35
351.865	-542.43
352.658	-7.18
353.452	-23.57
354.245	-18.45
355.038	-26.65
355.83	-23.58
356.623	-15.38
357.416	-24.6
358.209	-6.15
359.001	-28.7
359.794	-19.48
360.586	-22.55
361.378	-22.55
362.17	-20.5
362.963	-24.6
363.755	-13.32
364.546	-14.35
365.338	-28.7
366.13	-14.35
366.922	-49.2
367.713	-41
368.505	-23.58
369.296	-19.48
370.088	3.08
370.879	-23.58
371.67	-29.73
372.461	-14.35
373.252	-13.33
374.043	-23.57
374.834	-26.66
375.625	-15.38
376.415	-18.45
377.206	-26.65
377.996	-29.73
378.787	-16.4
379.577	-25.63
380.367	-17.43
381.157	-24.6
381.947	-9.23
382.737	-3.08
383.527	-34.85
384.317	-16.4
385.107	-10.25
385.896	-36.9
386.686	-30.75
387.475	-32.8
388.265	-15.38
389.054	-29.72
389.843	-25.63
390.632	-25.63
391.421	-22.55
392.21	-22.55
392.999	-11.28
393.788	-12.3
394.576	-11.28
395.365	-31.78
396.154	-18.45
396.942	-19.48
397.73	-35.88
398.519	-17.43
399.307	-16.4
400.095	-19.48
400.883	-15.37
401.671	-17.43
402.459	-18.45
403.246	-27.68
404.034	-22.55
404.822	-14.35
405.609	-27.67
406.396	-11.27
407.184	-15.38
407.971	-24.6
408.758	-29.73
409.545	-14.35
410.332	-23.57
411.119	-17.43
411.906	-15.38
412.693	-23.58
413.479	-22.55
414.266	-23.58
415.052	-20.5
415.839	1.03
416.625	-25.63
417.411	-17.43
418.197	-17.42
418.983	-29.72
419.769	-7.17
420.555	-28.7
421.341	-22.55
422.127	-20.5
422.912	-24.6
423.698	-19.47
424.483	-20.5
425.269	-43.06
426.054	-31.78
426.839	-19.48
427.624	-14.35
428.409	-20.5
429.194	-22.55
429.979	-8.2
430.764	-9.23
431.549	-10.25
432.333	-32.8
433.118	-32.81
433.902	-47.15
434.687	-54.33
435.471	-53.3
436.255	-35.88
437.039	-30.75
437.823	-36.9
438.607	-15.38
439.391	-41
440.175	-18.45
440.958	-29.73
441.742	-21.53
442.526	-22.55
443.309	-36.9
444.092	-36.9
444.876	-18.45
445.659	-12.3
446.442	-25.62
447.225	-31.77
448.008	-21.52
448.791	-23.57
449.573	8.2
450.356	-19.47
451.139	-26.65
451.921	-26.65
452.704	-4.1
453.486	-24.6
454.268	-29.72
455.05	-8.2
455.833	-16.4
456.615	-14.35
457.396	-12.3
458.178	-32.8
458.96	-14.35
459.742	-4.1
460.523	-35.88
461.305	-23.58
462.086	-15.38
462.868	-16.4
463.649	-18.45
464.43	-8.2
465.211	-24.6
465.992	-18.45
466.773	-29.72
467.554	-6.15
468.335	-12.3
469.115	-14.35
469.896	-15.38
470.676	-25.63
471.457	-25.63
472.237	-20.5
473.018	-17.43
473.798	-15.38
474.578	-33.83
475.358	-17.43
476.138	-12.3
476.918	-6.15
477.697	-8.2
478.477	-20.5
479.257	-9.23
480.036	-19.48
480.816	-32.81
481.595	-31.78
482.374	-37.93
483.153	-26.65
483.932	-29.73
484.711	-37.93
485.49	-48.18
486.269	-42.03
487.048	-67.66
487.827	-45.1
488.605	-37.93
489.384	-39.98
490.162	-34.85
490.941	-45.1
491.719	-23.58
492.497	-52.28
493.275	-36.9
494.053	-22.55
494.831	-25.63
495.609	-21.53
496.387	-32.8
497.164	-38.95
497.942	-35.88
498.72	-32.8
499.497	-24.6
500.274	-20.5
501.052	-33.83
501.829	-17.43
502.606	-28.7
503.383	-36.9
504.16	4.1
504.937	-24.6
505.714	-24.6
506.49	-28.7
507.267	-38.96
508.043	-29.73
508.82	-36.9
509.596	-3.08
510.373	-19.48
511.149	-33.83
511.925	-34.85
512.701	-12.3
513.477	-36.9
514.253	-27.68
515.029	-31.78
515.804	-37.93
516.58	-38.95
517.356	-24.6
518.131	-21.52
518.906	-13.33
519.682	-17.43
520.457	-26.65
521.232	-14.35
522.007	-24.6
522.782	-14.35
523.557	-2.05
524.332	-24.6
525.107	-17.42
525.881	-27.68
526.656	-22.55
527.43	-29.73
528.205	-39.98
528.979	-27.68
529.753	-11.28
530.527	-25.62
531.302	-18.45
532.076	-39.98
532.849	-30.75
533.623	-28.7
534.397	-35.88
535.171	-29.73
535.944	-20.5
536.718	-48.18
537.491	-30.75
538.265	-43.06
539.038	-49.2
539.811	-50.23
540.584	-54.33
541.357	-72.78
542.13	-78.92
542.903	-67.64
543.676	-72.78
544.449	-67.65
545.221	-77.9
545.994	-56.38
546.766	-45.1
547.539	-51.26
548.311	-61.5
549.083	-25.63
549.855	-52.29
550.627	-52.27
551.399	-47.15
552.171	-46.12
552.943	-30.75
553.715	-37.93
554.486	-26.65
555.258	-23.58
556.029	-21.53
556.801	-5.13
557.572	-45.11
558.343	-23.58
559.114	-35.87
559.886	-21.53
560.657	-24.6
561.427	-22.55
562.198	-21.53
562.969	-19.48
563.74	-13.33
564.51	-33.83
565.281	-35.87
566.051	-23.58
566.822	-27.68
567.592	-18.45
568.362	-20.5
569.132	-34.85
569.902	-13.32
570.672	-22.55
571.442	-28.7
572.212	-27.68
572.982	-28.7
573.751	-30.75
574.521	-24.6
575.29	-5.12
576.06	-35.88
576.829	-29.73
577.598	-26.65
578.367	-50.23
579.136	-24.6
579.905	-31.78
580.674	-24.6
581.443	-50.22
582.212	-51.25
582.981	-45.1
583.749	-31.78
584.518	-30.75
585.286	-26.65
586.054	-40.99
586.823	-47.15
587.591	-48.18
588.359	-37.92
589.127	-43.05
589.895	-37.92
590.663	-58.42
591.431	-31.77
592.198	-36.9
592.966	-20.5
593.734	-44.07
594.501	-28.7
595.268	-10.25
596.036	-42.02
596.803	-25.63
597.57	-31.78
598.337	-29.73
599.104	-44.08
599.871	-34.85
600.638	-23.57
601.405	-15.37
602.171	-15.38
602.938	-29.72
603.704	-6.15
604.471	-20.5
605.237	-19.47
606.004	-25.63
606.77	-39.97
607.536	-23.57
608.302	-31.77
609.068	-46.12
609.834	-59.45
610.599	-112.74
611.365	-70.73
612.131	-60.47
612.896	-44.07
613.662	-54.32
614.427	-16.4
615.193	-39.98
615.958	-28.7
616.723	-23.57
617.488	-3.08
618.253	-7.18
619.018	-28.7
619.783	-34.85
620.548	-26.65
621.312	-30.75
622.077	-18.45
622.842	-9.23
623.606	-20.5
624.37	-25.63
625.135	-25.62
625.899	-16.4
626.663	-19.48
627.427	-29.72
628.191	-4.1
628.955	-37.92
629.719	-21.53
630.483	-28.7
631.246	-19.48
632.01	-35.88
632.773	-27.67
633.537	0
634.3	-11.28
635.063	-3.08
635.827	-5.13
636.59	-15.38
637.353	-7.17
638.116	1.02
638.879	-5.13
639.641	4.1
640.404	-15.38
641.167	0
641.929	-9.22
642.692	-5.13
643.454	-8.2
644.216	-15.38
644.979	-18.45
645.741	-5.12
646.503	-1.02
647.265	-1.02
648.027	-8.2
648.789	-10.25
649.551	-14.35
650.312	-22.55
651.074	3.08
651.835	-17.43
652.597	-12.3
653.358	-15.37
654.12	12.3
654.881	8.2
655.642	-13.33
656.403	-14.35
657.164	-11.27
657.925	15.38
658.686	-16.4
659.447	-14.35
660.207	-8.2
660.968	5.12
661.728	-4.1
662.489	-6.15
663.249	-1.03
664.01	-8.2
664.77	4.1
665.53	24.6
666.29	-6.15
667.05	1.02
667.81	11.28
668.57	-4.1
669.329	-10.25
670.089	-7.18
670.849	-4.1
671.608	7.17
672.368	11.28
673.127	-8.2
673.886	-3.08
674.646	3.08
675.405	11.28
676.164	-2.05
676.923	-2.05
677.682	-22.55
678.44	3.08
679.199	-2.05
679.958	-37.91
680.717	14.35
681.475	-4.1
682.233	9.23
682.992	6.15
683.75	-4.1
684.508	-8.2
685.266	5.13
686.024	1.02
686.782	7.18
687.54	8.2
688.298	-3.07
689.056	-1.02
689.814	-4.1
690.571	3.08
691.329	3.08
692.086	-2.05
692.843	17.43
693.601	11.27
694.358	5.12
695.115	-1.03
695.872	-5.13
696.629	-3.08
697.386	1.02
698.143	17.42
698.9	-4.1
699.656	-8.2
700.413	0
701.169	-4.1
701.926	1.03
702.682	1.03
703.438	0
704.195	16.4
704.951	-3.08
705.707	-13.33
706.463	-1.03
707.219	-16.4
707.974	-43.06
708.73	-32.81
709.486	-25.63
710.241	-16.4
710.997	-5.13
711.752	-14.35
712.508	-13.33
713.263	-10.25
714.018	9.23
714.773	-6.15
715.528	9.22
716.283	-10.25
717.038	-10.25
717.793	-7.18
718.548	-9.23
719.303	-1.03
720.057	-8.2
720.812	-16.4
721.566	-10.25
722.321	-18.45
723.075	-7.18
723.829	-17.42
724.583	-11.28
725.337	-5.13
726.091	-11.27
726.845	-6.15
727.599	-27.68
728.353	-20.5
729.106	-17.43
729.86	-27.67
730.614	-20.5
731.367	18.3
732.12	-23.58
732.874	-7.18
733.627	-12.3
734.38	-16.4
735.133	-9.23
735.886	-16.4
736.639	-19.48
737.392	-12.3
738.145	-10.25
738.897	-7.17
739.65	-6.15
740.403	-14.35
741.155	-20.5
741.907	-11.28
742.66	-16.4
743.412	-27.68
744.164	-26.65
744.916	-16.4
745.668	-16.4
746.42	-20.5
747.172	-7.18
747.924	-23.58
748.676	-24.6
749.427	-11.28
750.179	-20.5
750.93	-2.05
751.682	-10.25
752.433	-28.7
753.184	-29.72
753.935	-11.28
754.687	-9.23
755.438	-28.7
756.189	-6.15
756.939	-24.6
757.69	-16.4
758.441	-18.45
759.192	-19.48
759.942	-20.5
760.693	-13.32
761.443	-12.3
762.194	-17.43
762.944	-11.28
763.694	-24.6
764.444	-16.4
765.194	-10.25
765.944	-24.6
766.694	-17.43
767.444	-20.5
768.194	-5.12
768.943	-26.65
769.693	-38.95
770.443	-24.6
771.192	-54.33
771.941	-17.43
772.691	-32.8
773.44	-22.55
774.189	-8.2
774.938	-23.58
775.687	-25.63
776.436	-36.9
777.185	-18.45
777.934	-28.7
778.683	-11.28
779.431	-28.7
780.18	-21.52
780.928	-8.2
781.677	-22.55
782.425	-11.28
783.173	-34.85
783.922	-23.57
784.67	-16.4
785.418	-32.8
786.166	-5.12
786.914	1.03
787.661	-25.63
788.409	-27.68
789.157	-26.65
789.904	-26.65
790.652	-14.35
791.399	-15.38
792.147	-21.53
792.894	-11.28
793.641	-12.3
794.388	-63.08
795.136	-7.18
795.883	-9.23
796.629	-21.52
797.376	-27.68
798.123	-17.43
798.87	-7.18
799.616	-38.95
800.363	-14.35
801.109	-13.32
801.856	-25.63
802.602	-17.43
803.349	-16.4
804.095	-20.5
804.841	-23.58
805.587	-22.55
806.333	-14.35
807.079	-22.55
807.825	-10.25
808.57	-23.58
809.316	-23.57
810.062	-38.95
810.807	-20.5
811.553	0
812.298	-16.4
813.043	-4.1
813.788	-20.5
814.534	-12.3
815.279	-11.27
816.024	-28.7
816.769	-21.53
817.514	-16.4
818.258	-34.85
819.003	-24.6
819.748	-320.05
820.492	-11.28
821.237	-138.51
821.981	-3.08
822.726	-27.67
823.47	-45.1
824.214	-25.62
824.958	-44.08
825.702	-37.92
826.446	-26.65
827.19	-7.17
827.934	-24.6
828.678	-11.27
829.421	-20.5
830.165	-34.85
830.909	-18.45
831.652	-21.53
832.395	-14.35
833.139	-11.27
833.882	-26.64
834.625	-20.5
835.368	-24.6
836.111	-25.63
836.854	-38.95
837.597	-19.47
838.34	-20.5
839.083	-8.2
839.825	-25.62
840.568	-11.28
841.311	-26.65
842.053	-21.52
842.795	-21.53
843.538	-18.45
844.28	-23.58
845.022	-10.25
845.764	-34.84
846.506	-4.1
847.248	-47.15
847.99	-34.85
848.732	-9.22
849.474	-27.68
850.215	-20.5
850.957	-28.71
851.698	-23.58
852.44	-14.35
853.181	-17.43
853.922	-23.57
854.664	-11.28
855.405	-23.57
856.146	-24.6
856.887	-24.6
857.628	-18.45
858.369	-18.45
859.109	-22.55
859.85	-16.4
860.591	-8.2
861.331	-34.86
862.072	-17.43
862.812	-18.45
863.553	-20.5
864.293	-17.42
865.033	-21.53
865.773	3.08
866.513	-23.58
867.253	-6.15
867.993	-14.35
868.733	-28.7
869.473	-28.7
870.213	-36.9
870.952	-16.4
871.692	-33.83
872.431	-14.35
873.171	-20.5
873.91	-1.03
874.649	-11.28
875.388	-22.55
876.128	-24.6
876.867	-39.98
877.606	-23.58
878.345	-22.55
879.083	-23.58
879.822	-24.6
880.561	-26.65
881.299	-16.4
882.038	-15.38
882.777	4.1
883.515	-34.85
884.253	-34.45
884.992	-31.78
885.73	-18.45
886.468	0
887.206	-16.4
887.944	-23.58
888.682	-24.6
889.42	-33.83
890.157	-14.35
890.895	-1.03
891.633	-38.91
892.37	-34.85
893.108	-36.9
893.845	-12.3
894.583	-17.43
895.32	-12.3
896.057	-20.5
896.794	-13.33
897.531	-32.8
898.268	-28.7
899.005	-35.88
899.742	-27.68
900.479	-20.5
901.215	-17.43
901.952	-27.68
902.689	-27.68
903.425	-26.66
904.162	-10.25
904.898	-21.53
905.634	-12.3
906.37	-13.33
907.106	-2.05
907.843	-14.35
908.579	-13.33
909.314	-17.43
910.05	-18.45
910.786	-31.78
911.522	-24.61
912.257	-46.12
912.993	-8.2
913.728	-12.3
914.464	-32.8
915.199	-10.25
915.935	-15.38
916.67	-21.53
917.405	-34.85
918.14	-8.2
918.875	-11.28
919.61	-9.22
920.345	-21.52
921.08	-30.75
921.814	5.13
922.549	-13.33
923.284	-34.85
924.018	-31.78
924.752	-24.6
925.487	-17.43
926.221	-20.5
926.955	-17.43
927.69	-14.35
928.424	-16.4
929.158	-27.68
929.892	-13.33
930.625	-16.4
931.359	-16.4
932.093	-17.43
932.827	-19.48
933.56	-23.58
934.294	-12.3
935.027	-18.45
935.761	-27.68
936.494	-24.6
937.227	-20.5
937.96	-26.65
938.693	-35.88
939.426	-16.4
940.159	-32.8
940.892	-24.6
941.625	-9.22
942.358	-37.93
943.091	-29.73
943.823	-22.55
944.556	-27.68
945.288	7.18
946.021	-28.7
946.753	-20.5
947.485	-27.68
948.217	-5.13
948.95	-24.6
949.682	-14.35
950.414	-19.48
951.146	-19.48
951.877	-8.2
952.609	7.18
953.341	-27.68
954.073	-18.45
954.804	-16.4
955.536	-23.58
956.267	-37.93
956.998	-8.2
957.73	-34.86
958.461	-17.43
959.192	-8.2
959.923	-17.42
960.654	-7.18
961.385	1.03
962.116	-22.55
962.847	-25.63
963.578	-25.63
964.308	-32.8
965.039	-22.55
965.769	-13.33
966.5	-20.5
967.23	-21.53
967.961	-11.28
968.691	-22.55
969.421	-7.18
970.151	-33.83
970.881	-45.11
971.611	-28.7
972.341	-19.48
973.071	-31.77
973.801	-11.27
974.53	-9.23
975.26	-23.58
975.99	-24.6
976.719	-36.9
977.448	-17.43
978.178	-38.95
978.907	-5.13
979.636	-22.55
980.365	-17.43
981.095	-23.57
981.824	-32.8
982.553	-13.33
983.281	-28.7
984.01	7.18
984.739	4.1
985.468	-9.24
986.196	4.1
986.925	-19.47
987.653	-21.53
988.382	4.1
989.11	-26.65
989.838	-12.3
990.566	-13.32
991.295	-32.8
992.023	-17.42
992.751	-8.2
993.478	-11.28
994.206	-16.4
994.934	-19.48
995.662	-5.13
996.389	2.05
997.117	-6.16
997.845	3.08
