Data from White_Bg_Subt2_002.txt Node
Date: Tue Aug 27 12:42:49 EDT 2019
User: wcc
Spectrometer: QEPB0759
Trigger mode: 0
Integration Time (sec): 1.000000E0
Scans to average: 1
Electric dark correction enabled: true
Nonlinearity correction enabled: false
Boxcar width: 0
XAxis mode: Wavelengths
Number of Pixels in Spectrum: 1044
>>>>>Begin Spectral Data<<<<<
197.938	25.75
198.749	32.75
199.559	30.75
200.369	28.75
201.179	18.75
201.988	37.75
202.798	47.75
203.608	18.75
204.417	32.75
205.227	25.75
206.036	33.75
206.846	30.75
207.655	24.75
208.464	22.75
209.273	29.75
210.082	30.75
210.891	33.75
211.7	23.75
212.508	34.75
213.317	26.75
214.125	19.75
214.934	38.75
215.742	20.75
216.55	26.75
217.359	34.75
218.167	20.75
218.975	32.75
219.782	29.75
220.59	23.75
221.398	21.75
222.206	24.75
223.013	42.75
223.82	41.75
224.628	21.75
225.435	40.75
226.242	18.75
227.049	23.75
227.856	21.75
228.663	25.75
229.47	20.75
230.277	15.75
231.083	31.75
231.89	22.75
232.696	37.75
233.502	30.75
234.309	37.75
235.115	25.75
235.921	25.75
236.727	23.75
237.533	21.75
238.339	23.75
239.144	28.75
239.95	24.75
240.756	36.75
241.561	19.75
242.366	32.75
243.172	29.75
243.977	24.75
244.782	32.75
245.587	31.75
246.392	30.75
247.197	8.75
248.001	38.75
248.806	35.75
249.611	28.75
250.415	27.75
251.219	29.75
252.024	19.75
252.828	26.75
253.632	23.75
254.436	40.75
255.24	47.75
256.044	25.75
256.848	28.75
257.651	21.75
258.455	26.75
259.258	30.75
260.062	91.75
260.865	32.75
261.668	37.75
262.471	11.75
263.274	24.75
264.077	30.75
264.88	3.75
265.683	23.75
266.486	14.75
267.288	26.75
268.091	28.75
268.893	22.75
269.696	39.75
270.498	36.75
271.3	34.75
272.102	29.75
272.904	27.75
273.706	29.75
274.508	27.75
275.309	44.75
276.111	34.75
276.913	21.75
277.714	21.75
278.515	14.75
279.317	25.75
280.118	26.75
280.919	24.75
281.72	34.75
282.521	35.75
283.322	27.75
284.122	17.75
284.923	13.75
285.724	17.75
286.524	34.75
287.325	39.75
288.125	12.75
288.925	28.75
289.725	20.75
290.525	29.75
291.325	18.75
292.125	7.75
292.925	22.75
293.724	31.75
294.524	22.75
295.324	23.75
296.123	22.75
296.922	32.75
297.722	44.75
298.521	32.75
299.32	34.75
300.119	24.75
300.918	19.75
301.716	33.75
302.515	33.75
303.314	32.75
304.112	26.75
304.911	34.75
305.709	30.75
306.507	31.75
307.306	29.75
308.104	26.75
308.902	23.75
309.7	34.75
310.498	35.75
311.295	23.75
312.093	30.75
312.891	29.75
313.688	29.75
314.485	27.75
315.283	22.75
316.08	27.75
316.877	40.75
317.674	28.75
318.471	37.75
319.268	27.75
320.065	24.75
320.862	26.75
321.658	19.75
322.455	29.75
323.251	37.75
324.047	30.75
324.844	20.75
325.64	22.75
326.436	32.75
327.232	22.75
328.028	28.75
328.824	32.75
329.62	25.75
330.415	33.75
331.211	34.75
332.006	25.75
332.802	42.75
333.597	29.75
334.392	32.75
335.187	30.75
335.982	27.75
336.777	29.75
337.572	37.75
338.367	34.75
339.162	27.75
339.956	21.75
340.751	17.75
341.545	38.75
342.34	18.75
343.134	22.75
343.928	28.75
344.722	26.75
345.516	35.75
346.31	13.75
347.104	39.75
347.898	33.75
348.691	23.75
349.485	32.75
350.278	32.75
351.072	35.75
351.865	569.75
352.658	36.75
353.452	22.75
354.245	17.75
355.038	20.75
355.83	25.75
356.623	35.75
357.416	33.75
358.209	20.75
359.001	17.75
359.794	40.75
360.586	44.75
361.378	32.75
362.17	14.75
362.963	23.75
363.755	22.75
364.546	35.75
365.338	23.75
366.13	40.75
366.922	23.75
367.713	27.75
368.505	20.75
369.296	26.75
370.088	30.75
370.879	29.75
371.67	31.75
372.461	33.75
373.252	22.75
374.043	28.75
374.834	17.75
375.625	48.75
376.415	18.75
377.206	21.75
377.996	38.75
378.787	40.75
379.577	30.75
380.367	35.75
381.157	24.75
381.947	25.75
382.737	10.75
383.527	24.75
384.317	42.75
385.107	31.75
385.896	15.75
386.686	32.75
387.475	33.75
388.265	37.75
389.054	29.75
389.843	18.75
390.632	27.75
391.421	31.75
392.21	29.75
392.999	23.75
393.788	29.75
394.576	26.75
395.365	43.75
396.154	21.75
396.942	14.75
397.73	19.75
398.519	35.75
399.307	27.75
400.095	28.75
400.883	18.75
401.671	36.75
402.459	17.75
403.246	19.75
404.034	25.75
404.822	19.75
405.609	37.75
406.396	30.75
407.184	26.75
407.971	27.75
408.758	22.75
409.545	24.75
410.332	34.75
411.119	36.75
411.906	14.75
412.693	31.75
413.479	38.75
414.266	30.75
415.052	21.75
415.839	23.75
416.625	22.75
417.411	29.75
418.197	35.75
418.983	34.75
419.769	30.75
420.555	16.75
421.341	42.75
422.127	27.75
422.912	33.75
423.698	18.75
424.483	14.75
425.269	34.75
426.054	22.75
426.839	31.75
427.624	17.75
428.409	37.75
429.194	40.75
429.979	45.75
430.764	37.75
431.549	22.75
432.333	28.75
433.118	27.75
433.902	18.75
434.687	29.75
435.471	25.75
436.255	27.75
437.039	23.75
437.823	31.75
438.607	22.75
439.391	21.75
440.175	1.75
440.958	25.75
441.742	35.75
442.526	27.75
443.309	25.75
444.092	38.75
444.876	39.75
445.659	34.75
446.442	31.75
447.225	32.75
448.008	20.75
448.791	41.75
449.573	36.75
450.356	40.75
451.139	22.75
451.921	22.75
452.704	29.75
453.486	31.75
454.268	40.75
455.05	25.75
455.833	44.75
456.615	32.75
457.396	47.75
458.178	22.75
458.96	28.75
459.742	40.75
460.523	26.75
461.305	31.75
462.086	39.75
462.868	43.75
463.649	47.75
464.43	21.75
465.211	37.75
465.992	38.75
466.773	43.75
467.554	16.75
468.335	42.75
469.115	39.75
469.896	35.75
470.676	25.75
471.457	38.75
472.237	42.75
473.018	12.75
473.798	50.75
474.578	38.75
475.358	33.75
476.138	27.75
476.918	28.75
477.697	31.75
478.477	21.75
479.257	38.75
480.036	25.75
480.816	24.75
481.595	37.75
482.374	24.75
483.153	40.75
483.932	26.75
484.711	24.75
485.49	34.75
486.269	28.75
487.048	26.75
487.827	28.75
488.605	31.75
489.384	18.75
490.162	20.75
490.941	10.75
491.719	31.75
492.497	27.75
493.275	25.75
494.053	31.75
494.831	21.75
495.609	37.75
496.387	32.75
497.164	25.75
497.942	36.75
498.72	30.75
499.497	33.75
500.274	27.75
501.052	26.75
501.829	40.75
502.606	38.75
503.383	40.75
504.16	50.75
504.937	44.75
505.714	49.75
506.49	51.75
507.267	26.75
508.043	27.75
508.82	43.75
509.596	26.75
510.373	26.75
511.149	49.75
511.925	39.75
512.701	35.75
513.477	39.75
514.253	36.75
515.029	42.75
515.804	42.75
516.58	42.75
517.356	33.75
518.131	39.75
518.906	31.75
519.682	24.75
520.457	41.75
521.232	17.75
522.007	44.75
522.782	32.75
523.557	30.75
524.332	37.75
525.107	38.75
525.881	38.75
526.656	46.75
527.43	45.75
528.205	39.75
528.979	41.75
529.753	54.75
530.527	52.75
531.302	38.75
532.076	40.75
532.849	35.75
533.623	47.75
534.397	36.75
535.171	48.75
535.944	51.75
536.718	42.75
537.491	47.75
538.265	33.75
539.038	49.75
539.811	38.75
540.584	27.75
541.357	40.75
542.13	57.75
542.903	42.75
543.676	44.75
544.449	25.75
545.221	35.75
545.994	41.75
546.766	26.75
547.539	33.75
548.311	45.75
549.083	40.75
549.855	36.75
550.627	48.75
551.399	49.75
552.171	44.75
552.943	53.75
553.715	51.75
554.486	49.75
555.258	33.75
556.029	53.75
556.801	45.75
557.572	46.75
558.343	47.75
559.114	50.75
559.886	43.75
560.657	31.75
561.427	36.75
562.198	53.75
562.969	46.75
563.74	49.75
564.51	34.75
565.281	38.75
566.051	36.75
566.822	38.75
567.592	39.75
568.362	53.75
569.132	52.75
569.902	61.75
570.672	39.75
571.442	49.75
572.212	49.75
572.982	51.75
573.751	44.75
574.521	53.75
575.29	47.75
576.06	43.75
576.829	43.75
577.598	40.75
578.367	31.75
579.136	35.75
579.905	38.75
580.674	47.75
581.443	45.75
582.212	46.75
582.981	51.75
583.749	27.75
584.518	54.75
585.286	37.75
586.054	45.75
586.823	48.75
587.591	33.75
588.359	61.75
589.127	52.75
589.895	38.75
590.663	43.75
591.431	49.75
592.198	57.75
592.966	48.75
593.734	55.75
594.501	39.75
595.268	52.75
596.036	51.75
596.803	48.75
597.57	44.75
598.337	44.75
599.104	45.75
599.871	50.75
600.638	54.75
601.405	42.75
602.171	46.75
602.938	46.75
603.704	37.75
604.471	32.75
605.237	40.75
606.004	37.75
606.77	34.75
607.536	26.75
608.302	35.75
609.068	55.75
609.834	34.75
610.599	30.75
611.365	33.75
612.131	34.75
612.896	41.75
613.662	41.75
614.427	41.75
615.193	41.75
615.958	38.75
616.723	38.75
617.488	43.75
618.253	17.75
619.018	29.75
619.783	34.75
620.548	48.75
621.312	50.75
622.077	40.75
622.842	40.75
623.606	50.75
624.37	29.75
625.135	35.75
625.899	48.75
626.663	38.75
627.427	48.75
628.191	39.75
628.955	41.75
629.719	44.75
630.483	54.75
631.246	36.75
632.01	36.75
632.773	49.75
633.537	49.75
634.3	37.75
635.063	31.75
635.827	35.75
636.59	38.75
637.353	24.75
638.116	54.75
638.879	39.75
639.641	40.75
640.404	49.75
641.167	50.75
641.929	42.75
642.692	38.75
643.454	42.75
644.216	28.75
644.979	41.75
645.741	41.75
646.503	44.75
647.265	55.75
648.027	33.75
648.789	41.75
649.551	45.75
650.312	44.75
651.074	36.75
651.835	42.75
652.597	45.75
653.358	34.75
654.12	48.75
654.881	39.75
655.642	31.75
656.403	43.75
657.164	31.75
657.925	32.75
658.686	44.75
659.447	40.75
660.207	50.75
660.968	56.75
661.728	54.75
662.489	66.75
663.249	45.75
664.01	36.75
664.77	42.75
665.53	38.75
666.29	28.75
667.05	53.75
667.81	46.75
668.57	58.75
669.329	39.75
670.089	39.75
670.849	41.75
671.608	56.75
672.368	35.75
673.127	48.75
673.886	42.75
674.646	39.75
675.405	55.75
676.164	44.75
676.923	42.75
677.682	43.75
678.44	38.75
679.199	49.75
679.958	-5.25
680.717	50.75
681.475	47.75
682.233	54.75
682.992	40.75
683.75	49.75
684.508	49.75
685.266	50.75
686.024	42.75
686.782	49.75
687.54	41.75
688.298	52.75
689.056	39.75
689.814	43.75
690.571	62.75
691.329	60.75
692.086	45.75
692.843	39.75
693.601	38.75
694.358	49.75
695.115	52.75
695.872	48.75
696.629	50.75
697.386	37.75
698.143	39.75
698.9	41.75
699.656	36.75
700.413	37.75
701.169	40.75
701.926	51.75
702.682	54.75
703.438	51.75
704.195	43.75
704.951	36.75
705.707	36.75
706.463	37.75
707.219	32.75
707.974	45.75
708.73	43.75
709.486	46.75
710.241	26.75
710.997	46.75
711.752	52.75
712.508	42.75
713.263	38.75
714.018	47.75
714.773	48.75
715.528	32.75
716.283	31.75
717.038	35.75
717.793	45.75
718.548	37.75
719.303	44.75
720.057	33.75
720.812	46.75
721.566	37.75
722.321	39.75
723.075	32.75
723.829	29.75
724.583	33.75
725.337	43.75
726.091	29.75
726.845	33.75
727.599	29.75
728.353	41.75
729.106	41.75
729.86	35.75
730.614	23.75
731.367	-198.25
732.12	25.75
732.874	42.75
733.627	44.75
734.38	36.75
735.133	33.75
735.886	32.75
736.639	31.75
737.392	32.75
738.145	26.75
738.897	32.75
739.65	23.75
740.403	21.75
741.155	39.75
741.907	27.75
742.66	35.75
743.412	21.75
744.164	35.75
744.916	42.75
745.668	23.75
746.42	54.75
747.172	36.75
747.924	31.75
748.676	28.75
749.427	24.75
750.179	29.75
750.93	35.75
751.682	32.75
752.433	17.75
753.184	36.75
753.935	44.75
754.687	32.75
755.438	21.75
756.189	34.75
756.939	33.75
757.69	29.75
758.441	35.75
759.192	42.75
759.942	30.75
760.693	33.75
761.443	41.75
762.194	34.75
762.944	23.75
763.694	37.75
764.444	18.75
765.194	47.75
765.944	28.75
766.694	37.75
767.444	33.75
768.194	27.75
768.943	23.75
769.693	21.75
770.443	33.75
771.192	45.75
771.941	19.75
772.691	27.75
773.44	14.75
774.189	37.75
774.938	38.75
775.687	29.75
776.436	17.75
777.185	28.75
777.934	29.75
778.683	26.75
779.431	37.75
780.18	34.75
780.928	25.75
781.677	24.75
782.425	23.75
783.173	30.75
783.922	41.75
784.67	13.75
785.418	41.75
786.166	48.75
786.914	24.75
787.661	21.75
788.409	28.75
789.157	20.75
789.904	18.75
790.652	35.75
791.399	19.75
792.147	37.75
792.894	16.75
793.641	23.75
794.388	9.75
795.136	25.75
795.883	21.75
796.629	11.75
797.376	23.75
798.123	30.75
798.87	37.75
799.616	17.75
800.363	35.75
801.109	33.75
801.856	21.75
802.602	17.75
803.349	26.75
804.095	28.75
804.841	33.75
805.587	28.75
806.333	34.75
807.079	38.75
807.825	30.75
808.57	20.75
809.316	41.75
810.062	26.75
810.807	17.75
811.553	34.75
812.298	35.75
813.043	38.75
813.788	32.75
814.534	25.75
815.279	27.75
816.024	28.75
816.769	37.75
817.514	33.75
818.258	33.75
819.003	32.75
819.748	411.75
820.492	26.75
821.237	137.75
821.981	21.75
822.726	25.75
823.47	22.75
824.214	29.75
824.958	33.75
825.702	20.75
826.446	29.75
827.19	23.75
827.934	30.75
828.678	32.75
829.421	42.75
830.165	24.75
830.909	28.75
831.652	19.75
832.395	33.75
833.139	26.75
833.882	36.75
834.625	29.75
835.368	28.75
836.111	10.75
836.854	35.75
837.597	29.75
838.34	15.75
839.083	26.75
839.825	29.75
840.568	18.75
841.311	27.75
842.053	29.75
842.795	38.75
843.538	16.75
844.28	25.75
845.022	16.75
845.764	25.75
846.506	14.75
847.248	27.75
847.99	21.75
848.732	28.75
849.474	17.75
850.215	13.75
850.957	16.75
851.698	37.75
852.44	18.75
853.181	29.75
853.922	24.75
854.664	22.75
855.405	31.75
856.146	37.75
856.887	37.75
857.628	27.75
858.369	16.75
859.109	22.75
859.85	33.75
860.591	18.75
861.331	39.75
862.072	24.75
862.812	29.75
863.553	23.75
864.293	30.75
865.033	15.75
865.773	20.75
866.513	17.75
867.253	27.75
867.993	21.75
868.733	24.75
869.473	14.75
870.213	36.75
870.952	26.75
871.692	26.75
872.431	28.75
873.171	20.75
873.91	31.75
874.649	17.75
875.388	42.75
876.128	25.75
876.867	14.75
877.606	27.75
878.345	23.75
879.083	17.75
879.822	32.75
880.561	33.75
881.299	34.75
882.038	33.75
882.777	31.75
883.515	16.75
884.253	283.75
884.992	40.75
885.73	27.75
886.468	29.75
887.206	34.75
887.944	48.75
888.682	28.75
889.42	33.75
890.157	30.75
890.895	31.75
891.633	32.75
892.37	30.75
893.108	28.75
893.845	21.75
894.583	33.75
895.32	32.75
896.057	32.75
896.794	33.75
897.531	32.75
898.268	29.75
899.005	33.75
899.742	44.75
900.479	23.75
901.215	25.75
901.952	25.75
902.689	27.75
903.425	30.75
904.162	14.75
904.898	14.75
905.634	18.75
906.37	27.75
907.106	30.75
907.843	24.75
908.579	27.75
909.314	16.75
910.05	30.75
910.786	34.75
911.522	13.75
912.257	15.75
912.993	17.75
913.728	19.75
914.464	24.75
915.199	22.75
915.935	33.75
916.67	38.75
917.405	31.75
918.14	16.75
918.875	32.75
919.61	34.75
920.345	35.75
921.08	41.75
921.814	21.75
922.549	15.75
923.284	-10.25
924.018	21.75
924.752	25.75
925.487	26.75
926.221	30.75
926.955	24.75
927.69	21.75
928.424	32.75
929.158	25.75
929.892	17.75
930.625	21.75
931.359	44.75
932.093	27.75
932.827	48.75
933.56	36.75
934.294	22.75
935.027	19.75
935.761	40.75
936.494	35.75
937.227	36.75
937.96	25.75
938.693	30.75
939.426	23.75
940.159	21.75
940.892	26.75
941.625	21.75
942.358	25.75
943.091	28.75
943.823	17.75
944.556	23.75
945.288	26.75
946.021	30.75
946.753	22.75
947.485	31.75
948.217	27.75
948.95	32.75
949.682	12.75
950.414	21.75
951.146	26.75
951.877	20.75
952.609	27.75
953.341	17.75
954.073	34.75
954.804	26.75
955.536	44.75
956.267	25.75
956.998	24.75
957.73	16.75
958.461	20.75
959.192	37.75
959.923	23.75
960.654	36.75
961.385	27.75
962.116	16.75
962.847	24.75
963.578	23.75
964.308	39.75
965.039	24.75
965.769	23.75
966.5	43.75
967.23	24.75
967.961	9.75
968.691	40.75
969.421	35.75
970.151	29.75
970.881	31.75
971.611	27.75
972.341	26.75
973.071	21.75
973.801	36.75
974.53	35.75
975.26	36.75
975.99	9.75
976.719	31.75
977.448	32.75
978.178	22.75
978.907	41.75
979.636	27.75
980.365	30.75
981.095	19.75
981.824	33.75
982.553	15.75
983.281	20.75
984.01	-2.25
984.739	2.75
985.468	-0.25
986.196	-4.25
986.925	40.75
987.653	37.75
988.382	18.75
989.11	24.75
989.838	33.75
990.566	16.75
991.295	15.75
992.023	21.75
992.751	30.75
993.478	20.75
994.206	37.75
994.934	18.75
995.662	-4.25
996.389	-4.25
997.117	3.75
997.845	8.75
