Data from White_Bg_Subt2_004.txt Node
Date: Tue Aug 27 12:42:51 EDT 2019
User: wcc
Spectrometer: QEPB0759
Trigger mode: 0
Integration Time (sec): 1.000000E0
Scans to average: 1
Electric dark correction enabled: true
Nonlinearity correction enabled: false
Boxcar width: 0
XAxis mode: Wavelengths
Number of Pixels in Spectrum: 1044
>>>>>Begin Spectral Data<<<<<
197.938	28.62
198.749	39.62
199.559	29.62
200.369	24.62
201.179	19.62
201.988	31.62
202.798	35.62
203.608	19.62
204.417	20.62
205.227	30.62
206.036	22.62
206.846	37.62
207.655	29.62
208.464	29.62
209.273	30.62
210.082	19.62
210.891	20.62
211.7	20.62
212.508	30.62
213.317	19.62
214.125	28.62
214.934	27.62
215.742	15.62
216.55	25.62
217.359	35.62
218.167	28.62
218.975	24.62
219.782	23.62
220.59	9.62
221.398	28.62
222.206	32.62
223.013	41.62
223.82	25.62
224.628	22.62
225.435	29.62
226.242	33.62
227.049	18.62
227.856	23.62
228.663	36.62
229.47	10.62
230.277	39.62
231.083	25.62
231.89	25.62
232.696	30.62
233.502	23.62
234.309	37.62
235.115	25.62
235.921	16.62
236.727	20.62
237.533	20.62
238.339	19.62
239.144	21.62
239.95	33.62
240.756	29.62
241.561	23.62
242.366	24.62
243.172	26.62
243.977	30.62
244.782	37.62
245.587	36.62
246.392	24.62
247.197	11.62
248.001	39.62
248.806	31.62
249.611	37.62
250.415	26.62
251.219	24.62
252.024	22.62
252.828	27.62
253.632	32.62
254.436	29.62
255.24	32.62
256.044	23.62
256.848	20.62
257.651	26.62
258.455	42.62
259.258	24.62
260.062	3766.62
260.865	23.62
261.668	23.62
262.471	14.62
263.274	30.62
264.077	13.62
264.88	10.62
265.683	24.62
266.486	14.62
267.288	23.62
268.091	28.62
268.893	23.62
269.696	24.62
270.498	25.62
271.3	20.62
272.102	14.62
272.904	17.62
273.706	26.62
274.508	12.62
275.309	47.62
276.111	33.62
276.913	26.62
277.714	27.62
278.515	12.62
279.317	30.62
280.118	20.62
280.919	30.62
281.72	30.62
282.521	35.62
283.322	30.62
284.122	13.62
284.923	19.62
285.724	21.62
286.524	34.62
287.325	25.62
288.125	18.62
288.925	29.62
289.725	8.62
290.525	18.62
291.325	25.62
292.125	13.62
292.925	31.62
293.724	37.62
294.524	22.62
295.324	22.62
296.123	22.62
296.922	21.62
297.722	29.62
298.521	32.62
299.32	33.62
300.119	18.62
300.918	22.62
301.716	32.62
302.515	36.62
303.314	28.62
304.112	33.62
304.911	31.62
305.709	33.62
306.507	36.62
307.306	16.62
308.104	32.62
308.902	23.62
309.7	34.62
310.498	36.62
311.295	28.62
312.093	33.62
312.891	30.62
313.688	32.62
314.485	26.62
315.283	31.62
316.08	27.62
316.877	32.62
317.674	17.62
318.471	33.62
319.268	30.62
320.065	23.62
320.862	29.62
321.658	25.62
322.455	32.62
323.251	34.62
324.047	22.62
324.844	32.62
325.64	26.62
326.436	32.62
327.232	30.62
328.028	31.62
328.824	25.62
329.62	27.62
330.415	34.62
331.211	19.62
332.006	20.62
332.802	36.62
333.597	20.62
334.392	28.62
335.187	27.62
335.982	25.62
336.777	24.62
337.572	23.62
338.367	28.62
339.162	33.62
339.956	21.62
340.751	27.62
341.545	29.62
342.34	23.62
343.134	25.62
343.928	24.62
344.722	34.62
345.516	22.62
346.31	23.62
347.104	27.62
347.898	33.62
348.691	15.62
349.485	34.62
350.278	22.62
351.072	35.62
351.865	580.62
352.658	19.62
353.452	10.62
354.245	29.62
355.038	32.62
355.83	23.62
356.623	32.62
357.416	32.62
358.209	26.62
359.001	29.62
359.794	34.62
360.586	38.62
361.378	34.62
362.17	6.62
362.963	17.62
363.755	25.62
364.546	23.62
365.338	30.62
366.13	30.62
366.922	25.62
367.713	26.62
368.505	30.62
369.296	20.62
370.088	35.62
370.879	33.62
371.67	29.62
372.461	28.62
373.252	20.62
374.043	29.62
374.834	11.62
375.625	43.62
376.415	17.62
377.206	17.62
377.996	28.62
378.787	33.62
379.577	24.62
380.367	24.62
381.157	34.62
381.947	26.62
382.737	3.62
383.527	24.62
384.317	26.62
385.107	27.62
385.896	13.62
386.686	18.62
387.475	26.62
388.265	26.62
389.054	32.62
389.843	15.62
390.632	17.62
391.421	23.62
392.21	10.62
392.999	25.62
393.788	21.62
394.576	27.62
395.365	37.62
396.154	14.62
396.942	29.62
397.73	24.62
398.519	31.62
399.307	26.62
400.095	21.62
400.883	14.62
401.671	21.62
402.459	27.62
403.246	4.62
404.034	39.62
404.822	21.62
405.609	34.62
406.396	18.62
407.184	25.62
407.971	32.62
408.758	29.62
409.545	25.62
410.332	27.62
411.119	30.62
411.906	11.62
412.693	38.62
413.479	32.62
414.266	14.62
415.052	32.62
415.839	21.62
416.625	26.62
417.411	26.62
418.197	27.62
418.983	37.62
419.769	24.62
420.555	25.62
421.341	37.62
422.127	27.62
422.912	40.62
423.698	12.62
424.483	11.62
425.269	31.62
426.054	33.62
426.839	30.62
427.624	21.62
428.409	34.62
429.194	17.62
429.979	38.62
430.764	33.62
431.549	33.62
432.333	36.62
433.118	17.62
433.902	19.62
434.687	28.62
435.471	19.62
436.255	23.62
437.039	23.62
437.823	26.62
438.607	39.62
439.391	21.62
440.175	16.62
440.958	30.62
441.742	23.62
442.526	19.62
443.309	17.62
444.092	41.62
444.876	41.62
445.659	25.62
446.442	30.62
447.225	33.62
448.008	37.62
448.791	39.62
449.573	26.62
450.356	33.62
451.139	26.62
451.921	21.62
452.704	25.62
453.486	47.62
454.268	37.62
455.05	25.62
455.833	36.62
456.615	35.62
457.396	44.62
458.178	14.62
458.96	32.62
459.742	43.62
460.523	34.62
461.305	27.62
462.086	40.62
462.868	36.62
463.649	35.62
464.43	30.62
465.211	35.62
465.992	44.62
466.773	43.62
467.554	31.62
468.335	28.62
469.115	28.62
469.896	20.62
470.676	28.62
471.457	31.62
472.237	38.62
473.018	13.62
473.798	39.62
474.578	48.62
475.358	31.62
476.138	30.62
476.918	30.62
477.697	20.62
478.477	39.62
479.257	32.62
480.036	25.62
480.816	33.62
481.595	37.62
482.374	15.62
483.153	38.62
483.932	31.62
484.711	21.62
485.49	27.62
486.269	18.62
487.048	24.62
487.827	30.62
488.605	12.62
489.384	26.62
490.162	18.62
490.941	15.62
491.719	22.62
492.497	30.62
493.275	30.62
494.053	19.62
494.831	27.62
495.609	28.62
496.387	32.62
497.164	13.62
497.942	43.62
498.72	24.62
499.497	28.62
500.274	39.62
501.052	26.62
501.829	46.62
502.606	28.62
503.383	28.62
504.16	42.62
504.937	40.62
505.714	50.62
506.49	44.62
507.267	40.62
508.043	32.62
508.82	41.62
509.596	23.62
510.373	28.62
511.149	42.62
511.925	28.62
512.701	19.62
513.477	34.62
514.253	29.62
515.029	37.62
515.804	40.62
516.58	39.62
517.356	39.62
518.131	30.62
518.906	39.62
519.682	32.62
520.457	34.62
521.232	19.62
522.007	43.62
522.782	39.62
523.557	30.62
524.332	42.62
525.107	50.62
525.881	39.62
526.656	47.62
527.43	46.62
528.205	45.62
528.979	40.62
529.753	45.62
530.527	51.62
531.302	37.62
532.076	42.62
532.849	33.62
533.623	44.62
534.397	39.62
535.171	51.62
535.944	37.62
536.718	30.62
537.491	36.62
538.265	39.62
539.038	44.62
539.811	40.62
540.584	25.62
541.357	33.62
542.13	44.62
542.903	30.62
543.676	41.62
544.449	28.62
545.221	29.62
545.994	31.62
546.766	27.62
547.539	30.62
548.311	46.62
549.083	37.62
549.855	31.62
550.627	44.62
551.399	51.62
552.171	38.62
552.943	50.62
553.715	38.62
554.486	54.62
555.258	33.62
556.029	44.62
556.801	35.62
557.572	35.62
558.343	38.62
559.114	33.62
559.886	45.62
560.657	41.62
561.427	53.62
562.198	37.62
562.969	38.62
563.74	46.62
564.51	36.62
565.281	41.62
566.051	46.62
566.822	44.62
567.592	38.62
568.362	34.62
569.132	43.62
569.902	56.62
570.672	42.62
571.442	47.62
572.212	47.62
572.982	42.62
573.751	50.62
574.521	56.62
575.29	44.62
576.06	55.62
576.829	35.62
577.598	41.62
578.367	32.62
579.136	37.62
579.905	35.62
580.674	49.62
581.443	42.62
582.212	37.62
582.981	38.62
583.749	30.62
584.518	44.62
585.286	40.62
586.054	39.62
586.823	38.62
587.591	37.62
588.359	55.62
589.127	28.62
589.895	54.62
590.663	45.62
591.431	49.62
592.198	47.62
592.966	47.62
593.734	41.62
594.501	38.62
595.268	50.62
596.036	56.62
596.803	39.62
597.57	52.62
598.337	43.62
599.104	41.62
599.871	38.62
600.638	52.62
601.405	42.62
602.171	38.62
602.938	43.62
603.704	44.62
604.471	38.62
605.237	48.62
606.004	29.62
606.77	34.62
607.536	33.62
608.302	30.62
609.068	55.62
609.834	32.62
610.599	25.62
611.365	21.62
612.131	41.62
612.896	47.62
613.662	26.62
614.427	33.62
615.193	45.62
615.958	28.62
616.723	40.62
617.488	41.62
618.253	25.62
619.018	27.62
619.783	33.62
620.548	45.62
621.312	40.62
622.077	43.62
622.842	50.62
623.606	50.62
624.37	22.62
625.135	35.62
625.899	47.62
626.663	37.62
627.427	49.62
628.191	45.62
628.955	47.62
629.719	40.62
630.483	33.62
631.246	43.62
632.01	40.62
632.773	58.62
633.537	47.62
634.3	47.62
635.063	26.62
635.827	35.62
636.59	40.62
637.353	24.62
638.116	44.62
638.879	31.62
639.641	38.62
640.404	56.62
641.167	41.62
641.929	34.62
642.692	41.62
643.454	32.62
644.216	31.62
644.979	45.62
645.741	37.62
646.503	43.62
647.265	42.62
648.027	35.62
648.789	32.62
649.551	38.62
650.312	38.62
651.074	34.62
651.835	43.62
652.597	40.62
653.358	48.62
654.12	41.62
654.881	40.62
655.642	37.62
656.403	38.62
657.164	40.62
657.925	33.62
658.686	45.62
659.447	43.62
660.207	46.62
660.968	34.62
661.728	45.62
662.489	67.62
663.249	49.62
664.01	40.62
664.77	45.62
665.53	47.62
666.29	31.62
667.05	45.62
667.81	48.62
668.57	50.62
669.329	35.62
670.089	36.62
670.849	34.62
671.608	54.62
672.368	41.62
673.127	55.62
673.886	53.62
674.646	27.62
675.405	40.62
676.164	43.62
676.923	44.62
677.682	42.62
678.44	46.62
679.199	52.62
679.958	-3.38
680.717	38.62
681.475	50.62
682.233	48.62
682.992	41.62
683.75	45.62
684.508	43.62
685.266	47.62
686.024	40.62
686.782	49.62
687.54	40.62
688.298	47.62
689.056	36.62
689.814	55.62
690.571	60.62
691.329	55.62
692.086	38.62
692.843	33.62
693.601	45.62
694.358	42.62
695.115	46.62
695.872	38.62
696.629	41.62
697.386	48.62
698.143	45.62
698.9	46.62
699.656	33.62
700.413	37.62
701.169	36.62
701.926	41.62
702.682	50.62
703.438	39.62
704.195	36.62
704.951	41.62
705.707	32.62
706.463	32.62
707.219	12.62
707.974	36.62
708.73	34.62
709.486	42.62
710.241	38.62
710.997	43.62
711.752	41.62
712.508	40.62
713.263	43.62
714.018	33.62
714.773	49.62
715.528	34.62
716.283	34.62
717.038	36.62
717.793	33.62
718.548	19.62
719.303	41.62
720.057	36.62
720.812	15.62
721.566	34.62
722.321	33.62
723.075	30.62
723.829	32.62
724.583	32.62
725.337	43.62
726.091	19.62
726.845	30.62
727.599	38.62
728.353	35.62
729.106	41.62
729.86	39.62
730.614	34.62
731.367	-15.38
732.12	26.62
732.874	43.62
733.627	45.62
734.38	28.62
735.133	23.62
735.886	30.62
736.639	34.62
737.392	33.62
738.145	28.62
738.897	25.62
739.65	27.62
740.403	32.62
741.155	40.62
741.907	35.62
742.66	36.62
743.412	32.62
744.164	39.62
744.916	23.62
745.668	33.62
746.42	33.62
747.172	30.62
747.924	34.62
748.676	21.62
749.427	26.62
750.179	17.62
750.93	31.62
751.682	33.62
752.433	30.62
753.184	33.62
753.935	38.62
754.687	18.62
755.438	39.62
756.189	22.62
756.939	22.62
757.69	27.62
758.441	39.62
759.192	32.62
759.942	25.62
760.693	29.62
761.443	43.62
762.194	35.62
762.944	29.62
763.694	19.62
764.444	20.62
765.194	32.62
765.944	25.62
766.694	24.62
767.444	23.62
768.194	25.62
768.943	28.62
769.693	19.62
770.443	20.62
771.192	27.62
771.941	10.62
772.691	23.62
773.44	22.62
774.189	22.62
774.938	17.62
775.687	24.62
776.436	15.62
777.185	22.62
777.934	24.62
778.683	29.62
779.431	30.62
780.18	30.62
780.928	8.62
781.677	17.62
782.425	28.62
783.173	26.62
783.922	31.62
784.67	23.62
785.418	32.62
786.166	35.62
786.914	24.62
787.661	15.62
788.409	31.62
789.157	35.62
789.904	16.62
790.652	23.62
791.399	14.62
792.147	35.62
792.894	9.62
793.641	17.62
794.388	195.62
795.136	18.62
795.883	27.62
796.629	18.62
797.376	24.62
798.123	16.62
798.87	23.62
799.616	22.62
800.363	33.62
801.109	27.62
801.856	32.62
802.602	16.62
803.349	29.62
804.095	36.62
804.841	27.62
805.587	18.62
806.333	29.62
807.079	37.62
807.825	26.62
808.57	28.62
809.316	40.62
810.062	27.62
810.807	22.62
811.553	33.62
812.298	30.62
813.043	32.62
813.788	23.62
814.534	19.62
815.279	11.62
816.024	18.62
816.769	27.62
817.514	24.62
818.258	35.62
819.003	33.62
819.748	501.62
820.492	30.62
821.237	135.62
821.981	28.62
822.726	29.62
823.47	20.62
824.214	10.62
824.958	29.62
825.702	25.62
826.446	27.62
827.19	21.62
827.934	21.62
828.678	26.62
829.421	34.62
830.165	23.62
830.909	34.62
831.652	20.62
832.395	32.62
833.139	26.62
833.882	34.62
834.625	24.62
835.368	21.62
836.111	29.62
836.854	29.62
837.597	19.62
838.34	22.62
839.083	15.62
839.825	19.62
840.568	20.62
841.311	21.62
842.053	24.62
842.795	18.62
843.538	27.62
844.28	26.62
845.022	3.62
845.764	19.62
846.506	28.62
847.248	25.62
847.99	15.62
848.732	32.62
849.474	22.62
850.215	19.62
850.957	31.62
851.698	24.62
852.44	23.62
853.181	34.62
853.922	31.62
854.664	16.62
855.405	34.62
856.146	26.62
856.887	33.62
857.628	15.62
858.369	15.62
859.109	27.62
859.85	21.62
860.591	33.62
861.331	37.62
862.072	34.62
862.812	29.62
863.553	22.62
864.293	33.62
865.033	24.62
865.773	29.62
866.513	26.62
867.253	23.62
867.993	18.62
868.733	26.62
869.473	9.62
870.213	33.62
870.952	21.62
871.692	20.62
872.431	37.62
873.171	12.62
873.91	31.62
874.649	29.62
875.388	43.62
876.128	23.62
876.867	16.62
877.606	28.62
878.345	32.62
879.083	22.62
879.822	22.62
880.561	27.62
881.299	37.62
882.038	29.62
882.777	30.62
883.515	19.62
884.253	270.62
884.992	35.62
885.73	26.62
886.468	34.62
887.206	30.62
887.944	48.62
888.682	28.62
889.42	22.62
890.157	29.62
890.895	25.62
891.633	35.62
892.37	24.62
893.108	39.62
893.845	21.62
894.583	25.62
895.32	39.62
896.057	24.62
896.794	25.62
897.531	29.62
898.268	23.62
899.005	24.62
899.742	37.62
900.479	18.62
901.215	25.62
901.952	33.62
902.689	40.62
903.425	25.62
904.162	12.62
904.898	18.62
905.634	16.62
906.37	21.62
907.106	18.62
907.843	25.62
908.579	33.62
909.314	17.62
910.05	28.62
910.786	33.62
911.522	20.62
912.257	18.62
912.993	15.62
913.728	23.62
914.464	26.62
915.199	14.62
915.935	31.62
916.67	37.62
917.405	14.62
918.14	12.62
918.875	26.62
919.61	38.62
920.345	28.62
921.08	27.62
921.814	21.62
922.549	27.62
923.284	23.62
924.018	18.62
924.752	25.62
925.487	30.62
926.221	21.62
926.955	24.62
927.69	13.62
928.424	26.62
929.158	32.62
929.892	16.62
930.625	21.62
931.359	22.62
932.093	31.62
932.827	38.62
933.56	26.62
934.294	21.62
935.027	16.62
935.761	33.62
936.494	28.62
937.227	24.62
937.96	35.62
938.693	27.62
939.426	15.62
940.159	20.62
940.892	20.62
941.625	22.62
942.358	23.62
943.091	40.62
943.823	23.62
944.556	23.62
945.288	33.62
946.021	37.62
946.753	25.62
947.485	39.62
948.217	19.62
948.95	33.62
949.682	12.62
950.414	20.62
951.146	33.62
951.877	34.62
952.609	36.62
953.341	14.62
954.073	27.62
954.804	26.62
955.536	32.62
956.267	23.62
956.998	20.62
957.73	29.62
958.461	16.62
959.192	32.62
959.923	32.62
960.654	24.62
961.385	21.62
962.116	18.62
962.847	25.62
963.578	22.62
964.308	25.62
965.039	21.62
965.769	26.62
966.5	23.62
967.23	19.62
967.961	18.62
968.691	32.62
969.421	22.62
970.151	33.62
970.881	35.62
971.611	29.62
972.341	25.62
973.071	13.62
973.801	34.62
974.53	29.62
975.26	31.62
975.99	24.62
976.719	25.62
977.448	32.62
978.178	33.62
978.907	35.62
979.636	35.62
980.365	18.62
981.095	19.62
981.824	35.62
982.553	32.62
983.281	24.62
984.01	-1.38
984.739	5.62
985.468	-1.38
986.196	-15.38
986.925	48.62
987.653	30.62
988.382	17.62
989.11	20.62
989.838	16.62
990.566	26.62
991.295	18.62
992.023	27.62
992.751	22.62
993.478	10.62
994.206	29.62
994.934	21.62
995.662	-1.38
996.389	1.62
997.117	5.62
997.845	6.62
