Data from White_Subt2_005.txt Node
Date: Tue Aug 27 12:40:04 EDT 2019
User: wcc
Spectrometer: QEPB0759
Trigger mode: 0
Integration Time (sec): 1.000000E0
Scans to average: 1
Electric dark correction enabled: true
Nonlinearity correction enabled: false
Boxcar width: 0
XAxis mode: Wavelengths
Number of Pixels in Spectrum: 1044
>>>>>Begin Spectral Data<<<<<
197.938	34.88
198.749	41.88
199.559	34.88
200.369	26.88
201.179	16.88
201.988	23.88
202.798	40.88
203.608	32.88
204.417	32.88
205.227	28.88
206.036	27.88
206.846	36.88
207.655	38.88
208.464	32.88
209.273	39.88
210.082	43.88
210.891	36.88
211.7	46.88
212.508	37.88
213.317	28.88
214.125	22.88
214.934	36.88
215.742	35.88
216.55	36.88
217.359	26.88
218.167	43.88
218.975	38.88
219.782	39.88
220.59	38.88
221.398	28.88
222.206	43.88
223.013	53.88
223.82	40.88
224.628	30.88
225.435	41.88
226.242	31.88
227.049	38.88
227.856	29.88
228.663	42.88
229.47	28.88
230.277	43.88
231.083	42.88
231.89	35.88
232.696	36.88
233.502	43.88
234.309	50.88
235.115	35.88
235.921	38.88
236.727	44.88
237.533	34.88
238.339	37.88
239.144	31.88
239.95	32.88
240.756	42.88
241.561	31.88
242.366	47.88
243.172	38.88
243.977	37.88
244.782	42.88
245.587	45.88
246.392	40.88
247.197	15.88
248.001	42.88
248.806	43.88
249.611	37.88
250.415	38.88
251.219	31.88
252.024	35.88
252.828	33.88
253.632	29.88
254.436	41.88
255.24	41.88
256.044	39.88
256.848	29.88
257.651	36.88
258.455	43.88
259.258	35.88
260.062	-1046.12
260.865	37.88
261.668	44.88
262.471	19.88
263.274	33.88
264.077	26.88
264.88	26.88
265.683	33.88
266.486	23.88
267.288	27.88
268.091	51.88
268.893	32.88
269.696	46.88
270.498	29.88
271.3	44.88
272.102	49.88
272.904	41.88
273.706	39.88
274.508	36.88
275.309	56.88
276.111	43.88
276.913	37.88
277.714	42.88
278.515	38.88
279.317	31.88
280.118	39.88
280.919	34.88
281.72	30.88
282.521	49.88
283.322	39.88
284.122	33.88
284.923	32.88
285.724	29.88
286.524	46.88
287.325	48.88
288.125	29.88
288.925	52.88
289.725	27.88
290.525	40.88
291.325	40.88
292.125	31.88
292.925	32.88
293.724	43.88
294.524	34.88
295.324	43.88
296.123	30.88
296.922	40.88
297.722	44.88
298.521	51.88
299.32	36.88
300.119	42.88
300.918	42.88
301.716	32.88
302.515	31.88
303.314	49.88
304.112	46.88
304.911	39.88
305.709	49.88
306.507	48.88
307.306	21.88
308.104	45.88
308.902	46.88
309.7	41.88
310.498	47.88
311.295	34.88
312.093	47.88
312.891	37.88
313.688	44.88
314.485	38.88
315.283	42.88
316.08	27.88
316.877	41.88
317.674	30.88
318.471	50.88
319.268	28.88
320.065	39.88
320.862	40.88
321.658	41.88
322.455	40.88
323.251	48.88
324.047	38.88
324.844	32.88
325.64	35.88
326.436	46.88
327.232	41.88
328.028	38.88
328.824	46.88
329.62	48.88
330.415	37.88
331.211	37.88
332.006	36.88
332.802	53.88
333.597	48.88
334.392	49.88
335.187	39.88
335.982	44.88
336.777	38.88
337.572	41.88
338.367	40.88
339.162	46.88
339.956	34.88
340.751	41.88
341.545	40.88
342.34	29.88
343.134	42.88
343.928	34.88
344.722	41.88
345.516	41.88
346.31	31.88
347.104	45.88
347.898	61.88
348.691	34.88
349.485	47.88
350.278	31.88
351.072	47.88
351.865	542.88
352.658	45.88
353.452	39.88
354.245	45.88
355.038	30.88
355.83	50.88
356.623	45.88
357.416	54.88
358.209	33.88
359.001	38.88
359.794	52.88
360.586	67.88
361.378	51.88
362.17	38.88
362.963	41.88
363.755	35.88
364.546	46.88
365.338	52.88
366.13	48.88
366.922	51.88
367.713	47.88
368.505	51.88
369.296	45.88
370.088	57.88
370.879	55.88
371.67	49.88
372.461	59.88
373.252	55.88
374.043	63.88
374.834	57.88
375.625	98.88
376.415	74.88
377.206	95.88
377.996	114.88
378.787	132.88
379.577	141.88
380.367	172.88
381.157	194.88
381.947	243.88
382.737	262.88
383.527	322.88
384.317	376.88
385.107	442.88
385.896	480.88
386.686	571.88
387.475	652.88
388.265	727.88
389.054	830.88
389.843	930.88
390.632	1045.88
391.421	1155.88
392.21	1298.88
392.999	1414.88
393.788	1587.88
394.576	1740.88
395.365	1900.88
396.154	2069.88
396.942	2265.88
397.73	2441.88
398.519	2583.88
399.307	2743.88
400.095	2932.88
400.883	3079.88
401.671	3287.88
402.459	3451.88
403.246	3638.88
404.034	3837.88
404.822	4009.88
405.609	4173.88
406.396	4291.88
407.184	4438.88
407.971	4481.88
408.758	4594.88
409.545	4678.88
410.332	4821.88
411.119	4936.88
411.906	5112.88
412.693	5351.88
413.479	5566.88
414.266	5843.88
415.052	6151.88
415.839	6453.88
416.625	6749.88
417.411	7122.88
418.197	7381.88
418.983	7662.88
419.769	7707.88
420.555	7648.88
421.341	7556.88
422.127	7464.88
422.912	7429.88
423.698	7373.88
424.483	7396.88
425.269	7517.88
426.054	7662.88
426.839	7886.88
427.624	8095.88
428.409	8425.88
429.194	8737.88
429.979	9031.88
430.764	9392.88
431.549	9640.88
432.333	9910.88
433.118	10101.88
433.902	10251.88
434.687	10372.88
435.471	10508.88
436.255	10630.88
437.039	10811.88
437.823	11039.88
438.607	11064.88
439.391	11088.88
440.175	11098.88
440.958	11230.88
441.742	11409.88
442.526	11546.88
443.309	11761.88
444.092	11943.88
444.876	12144.88
445.659	12305.88
446.442	12502.88
447.225	12777.88
448.008	13468.88
448.791	14673.88
449.573	15713.88
450.356	15799.88
451.139	15597.88
451.921	15736.88
452.704	15655.88
453.486	15537.88
454.268	15862.88
455.05	16320.88
455.833	16817.88
456.615	17480.88
457.396	17969.88
458.178	18129.88
458.96	18129.88
459.742	18267.88
460.523	18559.88
461.305	19150.88
462.086	19750.88
462.868	20005.88
463.649	19890.88
464.43	19743.88
465.211	20107.88
465.992	21209.88
466.773	22980.88
467.554	24150.88
468.335	24145.88
469.115	23575.88
469.896	22764.88
470.676	22299.88
471.457	22513.88
472.237	24386.88
473.018	25191.88
473.798	23713.88
474.578	22072.88
475.358	21427.88
476.138	21301.88
476.918	21333.88
477.697	21537.88
478.477	21974.88
479.257	22865.88
480.036	24071.88
480.816	25143.88
481.595	25596.88
482.374	25680.88
483.153	25699.88
483.932	25365.88
484.711	25059.88
485.49	24953.88
486.269	25049.88
487.048	25429.88
487.827	25830.88
488.605	26395.88
489.384	26920.88
490.162	28176.88
490.941	30089.88
491.719	31607.88
492.497	31696.88
493.275	31233.88
494.053	30688.88
494.831	30295.88
495.609	30142.88
496.387	30056.88
497.164	30077.88
497.942	30229.88
498.72	30344.88
499.497	30490.88
500.274	30780.88
501.052	31053.88
501.829	31397.88
502.606	31746.88
503.383	31916.88
504.16	32014.88
504.937	32193.88
505.714	32352.88
506.49	32595.88
507.267	32870.88
508.043	32995.88
508.82	33300.88
509.596	33595.88
510.373	33902.88
511.149	34409.88
511.925	34814.88
512.701	35222.88
513.477	35497.88
514.253	35774.88
515.029	36016.88
515.804	36377.88
516.58	36696.88
517.356	37014.88
518.131	37335.88
518.906	37632.88
519.682	38024.88
520.457	38313.88
521.232	38517.88
522.007	38784.88
522.782	39041.88
523.557	39244.88
524.332	39334.88
525.107	39467.88
525.881	39548.88
526.656	39615.88
527.43	39735.88
528.205	39883.88
528.979	39795.88
529.753	39631.88
530.527	39483.88
531.302	39411.88
532.076	39278.88
532.849	39297.88
533.623	39139.88
534.397	38816.88
535.171	38697.88
535.944	38467.88
536.718	38378.88
537.491	38117.88
538.265	37971.88
539.038	37917.88
539.811	37905.88
540.584	37962.88
541.357	38044.88
542.13	38043.88
542.903	37972.88
543.676	37815.88
544.449	37844.88
545.221	37785.88
545.994	37863.88
546.766	37835.88
547.539	37908.88
548.311	37978.88
549.083	38051.88
549.855	38008.88
550.627	38233.88
551.399	38435.88
552.171	38680.88
552.943	39001.88
553.715	39136.88
554.486	39386.88
555.258	39635.88
556.029	39971.88
556.801	40255.88
557.572	40581.88
558.343	40813.88
559.114	41086.88
559.886	41382.88
560.657	41798.88
561.427	42000.88
562.198	42257.88
562.969	42383.88
563.74	42595.88
564.51	42705.88
565.281	42878.88
566.051	43025.88
566.822	43042.88
567.592	43039.88
568.362	43000.88
569.132	42870.88
569.902	42720.88
570.672	42552.88
571.442	42297.88
572.212	42082.88
572.982	41935.88
573.751	41732.88
574.521	41644.88
575.29	41554.88
576.06	41416.88
576.829	41155.88
577.598	40954.88
578.367	40822.88
579.136	40769.88
579.905	40715.88
580.674	40788.88
581.443	40704.88
582.212	40684.88
582.981	40699.88
583.749	40730.88
584.518	40822.88
585.286	40842.88
586.054	40974.88
586.823	40937.88
587.591	41025.88
588.359	41009.88
589.127	40989.88
589.895	41089.88
590.663	41128.88
591.431	41031.88
592.198	41073.88
592.966	40965.88
593.734	40944.88
594.501	40786.88
595.268	40706.88
596.036	40592.88
596.803	40385.88
597.57	40227.88
598.337	39978.88
599.104	39726.88
599.871	39481.88
600.638	39348.88
601.405	39045.88
602.171	38916.88
602.938	38698.88
603.704	38543.88
604.471	38330.88
605.237	38174.88
606.004	37974.88
606.77	37885.88
607.536	37828.88
608.302	37802.88
609.068	37765.88
609.834	37738.88
610.599	37736.88
611.365	37834.88
612.131	37836.88
612.896	37841.88
613.662	37782.88
614.427	37691.88
615.193	37660.88
615.958	37659.88
616.723	37632.88
617.488	37580.88
618.253	37473.88
619.018	37376.88
619.783	37199.88
620.548	37000.88
621.312	36969.88
622.077	36800.88
622.842	36705.88
623.606	36417.88
624.37	36216.88
625.135	36016.88
625.899	35790.88
626.663	35493.88
627.427	35137.88
628.191	34840.88
628.955	34559.88
629.719	34317.88
630.483	34062.88
631.246	33715.88
632.01	33356.88
632.773	32954.88
633.537	32672.88
634.3	32273.88
635.063	31910.88
635.827	31439.88
636.59	31150.88
637.353	30781.88
638.116	30417.88
638.879	30048.88
639.641	29705.88
640.404	29362.88
641.167	29090.88
641.929	28734.88
642.692	28517.88
643.454	28195.88
644.216	27923.88
644.979	27799.88
645.741	27608.88
646.503	27449.88
647.265	27265.88
648.027	27188.88
648.789	27057.88
649.551	26842.88
650.312	26426.88
651.074	25956.88
651.835	25566.88
652.597	25228.88
653.358	24926.88
654.12	24715.88
654.881	24486.88
655.642	24451.88
656.403	24278.88
657.164	24254.88
657.925	24148.88
658.686	24059.88
659.447	24050.88
660.207	24177.88
660.968	24124.88
661.728	24296.88
662.489	24289.88
663.249	24429.88
664.01	24482.88
664.77	24619.88
665.53	24773.88
666.29	24920.88
667.05	24999.88
667.81	25037.88
668.57	25131.88
669.329	25200.88
670.089	25345.88
670.849	25381.88
671.608	25474.88
672.368	25465.88
673.127	25496.88
673.886	25413.88
674.646	25364.88
675.405	25306.88
676.164	25275.88
676.923	25120.88
677.682	25029.88
678.44	24835.88
679.199	24740.88
679.958	24754.88
680.717	24829.88
681.475	25239.88
682.233	25825.88
682.992	26004.88
683.75	25476.88
684.508	24873.88
685.266	24317.88
686.024	23849.88
686.782	23570.88
687.54	23289.88
688.298	23022.88
689.056	22653.88
689.814	22282.88
690.571	21870.88
691.329	21369.88
692.086	20979.88
692.843	20590.88
693.601	20286.88
694.358	19899.88
695.115	19447.88
695.872	19094.88
696.629	18830.88
697.386	18554.88
698.143	18282.88
698.9	18040.88
699.656	17855.88
700.413	17721.88
701.169	17583.88
701.926	17482.88
702.682	17375.88
703.438	17249.88
704.195	17039.88
704.951	16956.88
705.707	16842.88
706.463	16762.88
707.219	16692.88
707.974	16658.88
708.73	16645.88
709.486	16552.88
710.241	16540.88
710.997	16451.88
711.752	16406.88
712.508	16132.88
713.263	15767.88
714.018	15346.88
714.773	15025.88
715.528	14567.88
716.283	14084.88
717.038	13638.88
717.793	13256.88
718.548	12651.88
719.303	12221.88
720.057	11661.88
720.812	11229.88
721.566	10850.88
722.321	10501.88
723.075	10172.88
723.829	9910.88
724.583	9749.88
725.337	9545.88
726.091	9391.88
726.845	9287.88
727.599	9185.88
728.353	9126.88
729.106	8948.88
729.86	8802.88
730.614	8895.88
731.367	8862.88
732.12	9080.88
732.874	8968.88
733.627	8636.88
734.38	8237.88
735.133	7838.88
735.886	7484.88
736.639	7237.88
737.392	7076.88
738.145	7007.88
738.897	6895.88
739.65	6764.88
740.403	6719.88
741.155	6565.88
741.907	6247.88
742.66	5810.88
743.412	5230.88
744.164	4570.88
744.916	3770.88
745.668	2874.88
746.42	1975.88
747.172	1190.88
747.924	640.88
748.676	344.88
749.427	231.88
750.179	181.88
750.93	152.88
751.682	137.88
752.433	129.88
753.184	124.88
753.935	131.88
754.687	120.88
755.438	113.88
756.189	112.88
756.939	117.88
757.69	94.88
758.441	106.88
759.192	92.88
759.942	93.88
760.693	98.88
761.443	113.88
762.194	97.88
762.944	89.88
763.694	98.88
764.444	98.88
765.194	96.88
765.944	79.88
766.694	89.88
767.444	82.88
768.194	79.88
768.943	67.88
769.693	73.88
770.443	63.88
771.192	84.88
771.941	71.88
772.691	76.88
773.44	64.88
774.189	72.88
774.938	69.88
775.687	69.88
776.436	64.88
777.185	74.88
777.934	61.88
778.683	76.88
779.431	74.88
780.18	69.88
780.928	55.88
781.677	61.88
782.425	66.88
783.173	67.88
783.922	63.88
784.67	55.88
785.418	59.88
786.166	66.88
786.914	67.88
787.661	64.88
788.409	61.88
789.157	73.88
789.904	50.88
790.652	48.88
791.399	50.88
792.147	66.88
792.894	55.88
793.641	58.88
794.388	101.88
795.136	56.88
795.883	54.88
796.629	42.88
797.376	48.88
798.123	42.88
798.87	48.88
799.616	49.88
800.363	47.88
801.109	47.88
801.856	51.88
802.602	35.88
803.349	46.88
804.095	44.88
804.841	54.88
805.587	42.88
806.333	50.88
807.079	54.88
807.825	53.88
808.57	45.88
809.316	57.88
810.062	47.88
810.807	39.88
811.553	42.88
812.298	43.88
813.043	42.88
813.788	39.88
814.534	40.88
815.279	38.88
816.024	23.88
816.769	43.88
817.514	33.88
818.258	42.88
819.003	46.88
819.748	366.88
820.492	34.88
821.237	111.88
821.981	27.88
822.726	41.88
823.47	29.88
824.214	33.88
824.958	46.88
825.702	32.88
826.446	32.88
827.19	34.88
827.934	27.88
828.678	36.88
829.421	18.88
830.165	37.88
830.909	36.88
831.652	20.88
832.395	32.88
833.139	19.88
833.882	49.88
834.625	28.88
835.368	32.88
836.111	39.88
836.854	28.88
837.597	34.88
838.34	28.88
839.083	35.88
839.825	24.88
840.568	26.88
841.311	28.88
842.053	31.88
842.795	31.88
843.538	31.88
844.28	19.88
845.022	12.88
845.764	25.88
846.506	15.88
847.248	30.88
847.99	25.88
848.732	33.88
849.474	27.88
850.215	27.88
850.957	26.88
851.698	33.88
852.44	24.88
853.181	31.88
853.922	41.88
854.664	26.88
855.405	36.88
856.146	36.88
856.887	32.88
857.628	30.88
858.369	13.88
859.109	28.88
859.85	34.88
860.591	33.88
861.331	46.88
862.072	33.88
862.812	18.88
863.553	39.88
864.293	32.88
865.033	28.88
865.773	30.88
866.513	24.88
867.253	36.88
867.993	11.88
868.733	28.88
869.473	21.88
870.213	33.88
870.952	25.88
871.692	18.88
872.431	36.88
873.171	22.88
873.91	33.88
874.649	29.88
875.388	45.88
876.128	31.88
876.867	30.88
877.606	21.88
878.345	36.88
879.083	30.88
879.822	20.88
880.561	33.88
881.299	34.88
882.038	31.88
882.777	33.88
883.515	23.88
884.253	-44.12
884.992	27.88
885.73	22.88
886.468	25.88
887.206	30.88
887.944	37.88
888.682	29.88
889.42	27.88
890.157	24.88
890.895	24.88
891.633	17.88
892.37	21.88
893.108	33.88
893.845	25.88
894.583	22.88
895.32	28.88
896.057	23.88
896.794	32.88
897.531	23.88
898.268	16.88
899.005	28.88
899.742	32.88
900.479	19.88
901.215	22.88
901.952	23.88
902.689	18.88
903.425	22.88
904.162	4.88
904.898	20.88
905.634	18.88
906.37	30.88
907.106	14.88
907.843	20.88
908.579	23.88
909.314	11.88
910.05	25.88
910.786	32.88
911.522	12.88
912.257	11.88
912.993	14.88
913.728	18.88
914.464	30.88
915.199	11.88
915.935	26.88
916.67	27.88
917.405	17.88
918.14	16.88
918.875	34.88
919.61	31.88
920.345	30.88
921.08	31.88
921.814	21.88
922.549	13.88
923.284	36.88
924.018	11.88
924.752	30.88
925.487	21.88
926.221	20.88
926.955	18.88
927.69	10.88
928.424	10.88
929.158	26.88
929.892	7.88
930.625	15.88
931.359	32.88
932.093	14.88
932.827	26.88
933.56	26.88
934.294	13.88
935.027	21.88
935.761	25.88
936.494	19.88
937.227	21.88
937.96	30.88
938.693	24.88
939.426	27.88
940.159	23.88
940.892	17.88
941.625	17.88
942.358	17.88
943.091	21.88
943.823	18.88
944.556	18.88
945.288	25.88
946.021	24.88
946.753	21.88
947.485	21.88
948.217	21.88
948.95	30.88
949.682	8.88
950.414	25.88
951.146	31.88
951.877	29.88
952.609	29.88
953.341	12.88
954.073	24.88
954.804	19.88
955.536	31.88
956.267	22.88
956.998	16.88
957.73	16.88
958.461	11.88
959.192	28.88
959.923	31.88
960.654	30.88
961.385	16.88
962.116	15.88
962.847	30.88
963.578	15.88
964.308	30.88
965.039	18.88
965.769	15.88
966.5	21.88
967.23	23.88
967.961	10.88
968.691	35.88
969.421	16.88
970.151	18.88
970.881	30.88
971.611	21.88
972.341	21.88
973.071	16.88
973.801	29.88
974.53	31.88
975.26	24.88
975.99	9.88
976.719	25.88
977.448	28.88
978.178	30.88
978.907	22.88
979.636	26.88
980.365	9.88
981.095	18.88
981.824	26.88
982.553	20.88
983.281	3.88
984.01	-1.12
984.739	2.88
985.468	1.88
986.196	-0.12
986.925	49.88
987.653	33.88
988.382	20.88
989.11	24.88
989.838	32.88
990.566	30.88
991.295	13.88
992.023	26.88
992.751	24.88
993.478	24.88
994.206	24.88
994.934	16.88
995.662	-7.12
996.389	-0.12
997.117	-5.12
997.845	8.88
