Data from White_Subt2_003.txt Node
Date: Tue Aug 27 12:40:03 EDT 2019
User: wcc
Spectrometer: QEPB0759
Trigger mode: 0
Integration Time (sec): 1.000000E0
Scans to average: 1
Electric dark correction enabled: true
Nonlinearity correction enabled: false
Boxcar width: 0
XAxis mode: Wavelengths
Number of Pixels in Spectrum: 1044
>>>>>Begin Spectral Data<<<<<
197.938	38.62
198.749	31.62
199.559	36.62
200.369	36.62
201.179	20.62
201.988	36.62
202.798	53.62
203.608	23.62
204.417	25.62
205.227	36.62
206.036	27.62
206.846	46.62
207.655	39.62
208.464	25.62
209.273	47.62
210.082	41.62
210.891	47.62
211.7	38.62
212.508	49.62
213.317	32.62
214.125	39.62
214.934	42.62
215.742	35.62
216.55	36.62
217.359	39.62
218.167	45.62
218.975	49.62
219.782	43.62
220.59	34.62
221.398	38.62
222.206	33.62
223.013	45.62
223.82	48.62
224.628	33.62
225.435	46.62
226.242	31.62
227.049	32.62
227.856	36.62
228.663	49.62
229.47	36.62
230.277	43.62
231.083	35.62
231.89	29.62
232.696	33.62
233.502	38.62
234.309	48.62
235.115	38.62
235.921	34.62
236.727	34.62
237.533	35.62
238.339	42.62
239.144	37.62
239.95	36.62
240.756	44.62
241.561	46.62
242.366	50.62
243.172	48.62
243.977	33.62
244.782	40.62
245.587	40.62
246.392	39.62
247.197	16.62
248.001	48.62
248.806	56.62
249.611	43.62
250.415	46.62
251.219	33.62
252.024	32.62
252.828	38.62
253.632	38.62
254.436	41.62
255.24	48.62
256.044	47.62
256.848	29.62
257.651	44.62
258.455	42.62
259.258	44.62
260.062	-1013.38
260.865	38.62
261.668	45.62
262.471	37.62
263.274	46.62
264.077	39.62
264.88	26.62
265.683	45.62
266.486	22.62
267.288	36.62
268.091	40.62
268.893	37.62
269.696	41.62
270.498	45.62
271.3	33.62
272.102	43.62
272.904	35.62
273.706	47.62
274.508	32.62
275.309	60.62
276.111	57.62
276.913	41.62
277.714	40.62
278.515	36.62
279.317	44.62
280.118	49.62
280.919	35.62
281.72	47.62
282.521	55.62
283.322	41.62
284.122	30.62
284.923	35.62
285.724	42.62
286.524	48.62
287.325	55.62
288.125	37.62
288.925	48.62
289.725	33.62
290.525	31.62
291.325	51.62
292.125	25.62
292.925	34.62
293.724	43.62
294.524	42.62
295.324	44.62
296.123	40.62
296.922	36.62
297.722	38.62
298.521	39.62
299.32	48.62
300.119	45.62
300.918	49.62
301.716	33.62
302.515	33.62
303.314	50.62
304.112	40.62
304.911	31.62
305.709	41.62
306.507	48.62
307.306	37.62
308.104	42.62
308.902	45.62
309.7	50.62
310.498	44.62
311.295	45.62
312.093	53.62
312.891	39.62
313.688	45.62
314.485	47.62
315.283	45.62
316.08	34.62
316.877	52.62
317.674	39.62
318.471	50.62
319.268	39.62
320.065	34.62
320.862	35.62
321.658	46.62
322.455	30.62
323.251	42.62
324.047	50.62
324.844	40.62
325.64	37.62
326.436	51.62
327.232	36.62
328.028	36.62
328.824	43.62
329.62	39.62
330.415	45.62
331.211	36.62
332.006	42.62
332.802	49.62
333.597	47.62
334.392	40.62
335.187	48.62
335.982	44.62
336.777	44.62
337.572	55.62
338.367	44.62
339.162	43.62
339.956	36.62
340.751	54.62
341.545	52.62
342.34	35.62
343.134	43.62
343.928	45.62
344.722	46.62
345.516	41.62
346.31	43.62
347.104	41.62
347.898	58.62
348.691	47.62
349.485	49.62
350.278	33.62
351.072	47.62
351.865	481.62
352.658	46.62
353.452	29.62
354.245	38.62
355.038	44.62
355.83	50.62
356.623	56.62
357.416	42.62
358.209	45.62
359.001	45.62
359.794	40.62
360.586	58.62
361.378	42.62
362.17	36.62
362.963	45.62
363.755	53.62
364.546	44.62
365.338	47.62
366.13	60.62
366.922	47.62
367.713	49.62
368.505	55.62
369.296	59.62
370.088	53.62
370.879	47.62
371.67	58.62
372.461	53.62
373.252	57.62
374.043	57.62
374.834	63.62
375.625	82.62
376.415	69.62
377.206	100.62
377.996	111.62
378.787	131.62
379.577	142.62
380.367	167.62
381.157	196.62
381.947	242.62
382.737	272.62
383.527	315.62
384.317	380.62
385.107	417.62
385.896	468.62
386.686	560.62
387.475	634.62
388.265	741.62
389.054	843.62
389.843	922.62
390.632	1061.62
391.421	1180.62
392.21	1295.62
392.999	1440.62
393.788	1584.62
394.576	1747.62
395.365	1911.62
396.154	2068.62
396.942	2241.62
397.73	2423.62
398.519	2588.62
399.307	2753.62
400.095	2882.62
400.883	3050.62
401.671	3279.62
402.459	3460.62
403.246	3632.62
404.034	3847.62
404.822	3997.62
405.609	4176.62
406.396	4309.62
407.184	4418.62
407.971	4508.62
408.758	4595.62
409.545	4710.62
410.332	4809.62
411.119	4963.62
411.906	5121.62
412.693	5339.62
413.479	5560.62
414.266	5836.62
415.052	6104.62
415.839	6458.62
416.625	6798.62
417.411	7087.62
418.197	7435.62
418.983	7671.62
419.769	7713.62
420.555	7658.62
421.341	7548.62
422.127	7456.62
422.912	7423.62
423.698	7394.62
424.483	7406.62
425.269	7537.62
426.054	7649.62
426.839	7847.62
427.624	8133.62
428.409	8404.62
429.194	8686.62
429.979	9046.62
430.764	9353.62
431.549	9663.62
432.333	9891.62
433.118	10078.62
433.902	10278.62
434.687	10375.62
435.471	10471.62
436.255	10644.62
437.039	10842.62
437.823	11010.62
438.607	11113.62
439.391	11064.62
440.175	11130.62
440.958	11254.62
441.742	11356.62
442.526	11535.62
443.309	11717.62
444.092	11966.62
444.876	12161.62
445.659	12282.62
446.442	12487.62
447.225	12775.62
448.008	13405.62
448.791	14631.62
449.573	15741.62
450.356	15816.62
451.139	15583.62
451.921	15761.62
452.704	15640.62
453.486	15539.62
454.268	15844.62
455.05	16326.62
455.833	16832.62
456.615	17440.62
457.396	17969.62
458.178	18131.62
458.96	18158.62
459.742	18235.62
460.523	18548.62
461.305	19203.62
462.086	19805.62
462.868	19955.62
463.649	19913.62
464.43	19743.62
465.211	20059.62
465.992	21211.62
466.773	23007.62
467.554	24140.62
468.335	24177.62
469.115	23542.62
469.896	22855.62
470.676	22306.62
471.457	22565.62
472.237	24368.62
473.018	25152.62
473.798	23764.62
474.578	22129.62
475.358	21425.62
476.138	21320.62
476.918	21392.62
477.697	21556.62
478.477	22021.62
479.257	22839.62
480.036	24197.62
480.816	25226.62
481.595	25642.62
482.374	25755.62
483.153	25710.62
483.932	25420.62
484.711	25100.62
485.49	25012.62
486.269	25095.62
487.048	25437.62
487.827	25861.62
488.605	26383.62
489.384	26998.62
490.162	28145.62
490.941	30165.62
491.719	31534.62
492.497	31790.62
493.275	31244.62
494.053	30667.62
494.831	30242.62
495.609	30076.62
496.387	30038.62
497.164	30118.62
497.942	30232.62
498.72	30360.62
499.497	30546.62
500.274	30795.62
501.052	31086.62
501.829	31368.62
502.606	31736.62
503.383	31941.62
504.16	32038.62
504.937	32187.62
505.714	32394.62
506.49	32586.62
507.267	32771.62
508.043	33002.62
508.82	33369.62
509.596	33649.62
510.373	33962.62
511.149	34356.62
511.925	34760.62
512.701	35249.62
513.477	35451.62
514.253	35730.62
515.029	36036.62
515.804	36305.62
516.58	36766.62
517.356	37030.62
518.131	37393.62
518.906	37714.62
519.682	38005.62
520.457	38293.62
521.232	38566.62
522.007	38904.62
522.782	39027.62
523.557	39304.62
524.332	39294.62
525.107	39524.62
525.881	39634.62
526.656	39683.62
527.43	39780.62
528.205	39874.62
528.979	39849.62
529.753	39661.62
530.527	39591.62
531.302	39469.62
532.076	39381.62
532.849	39269.62
533.623	39194.62
534.397	38836.62
535.171	38751.62
535.944	38534.62
536.718	38397.62
537.491	38107.62
538.265	38106.62
539.038	38036.62
539.811	37914.62
540.584	38079.62
541.357	38099.62
542.13	37965.62
542.903	37983.62
543.676	37915.62
544.449	37874.62
545.221	37822.62
545.994	37951.62
546.766	37949.62
547.539	37879.62
548.311	37894.62
549.083	38087.62
549.855	38137.62
550.627	38321.62
551.399	38513.62
552.171	38727.62
552.943	38985.62
553.715	39187.62
554.486	39460.62
555.258	39688.62
556.029	40039.62
556.801	40352.62
557.572	40603.62
558.343	40883.62
559.114	41138.62
559.886	41544.62
560.657	41767.62
561.427	42091.62
562.198	42291.62
562.969	42524.62
563.74	42702.62
564.51	42782.62
565.281	42905.62
566.051	43048.62
566.822	43160.62
567.592	43115.62
568.362	43059.62
569.132	42902.62
569.902	42703.62
570.672	42506.62
571.442	42360.62
572.212	42121.62
572.982	41965.62
573.751	41778.62
574.521	41719.62
575.29	41509.62
576.06	41370.62
576.829	41146.62
577.598	41097.62
578.367	40876.62
579.136	40789.62
579.905	40804.62
580.674	40670.62
581.443	40721.62
582.212	40828.62
582.981	40760.62
583.749	40775.62
584.518	40827.62
585.286	40852.62
586.054	40908.62
586.823	40992.62
587.591	41043.62
588.359	41060.62
589.127	41155.62
589.895	41126.62
590.663	41135.62
591.431	41079.62
592.198	41082.62
592.966	41001.62
593.734	40954.62
594.501	40885.62
595.268	40725.62
596.036	40577.62
596.803	40412.62
597.57	40265.62
598.337	39969.62
599.104	39757.62
599.871	39604.62
600.638	39282.62
601.405	39126.62
602.171	38927.62
602.938	38827.62
603.704	38469.62
604.471	38404.62
605.237	38223.62
606.004	38036.62
606.77	37865.62
607.536	37855.62
608.302	37813.62
609.068	37781.62
609.834	37726.62
610.599	37750.62
611.365	37879.62
612.131	37833.62
612.896	37837.62
613.662	37762.62
614.427	37801.62
615.193	37724.62
615.958	37710.62
616.723	37666.62
617.488	37606.62
618.253	37505.62
619.018	37440.62
619.783	37301.62
620.548	37185.62
621.312	37133.62
622.077	36924.62
622.842	36711.62
623.606	36477.62
624.37	36301.62
625.135	36077.62
625.899	35870.62
626.663	35465.62
627.427	35173.62
628.191	34894.62
628.955	34625.62
629.719	34434.62
630.483	34013.62
631.246	33714.62
632.01	33376.62
632.773	33054.62
633.537	32652.62
634.3	32303.62
635.063	31943.62
635.827	31552.62
636.59	31136.62
637.353	30781.62
638.116	30420.62
638.879	30127.62
639.641	29729.62
640.404	29461.62
641.167	29133.62
641.929	28782.62
642.692	28508.62
643.454	28247.62
644.216	27950.62
644.979	27838.62
645.741	27634.62
646.503	27482.62
647.265	27361.62
648.027	27187.62
648.789	27038.62
649.551	26892.62
650.312	26373.62
651.074	25990.62
651.835	25543.62
652.597	25242.62
653.358	24961.62
654.12	24764.62
654.881	24588.62
655.642	24472.62
656.403	24240.62
657.164	24190.62
657.925	24131.62
658.686	24082.62
659.447	24144.62
660.207	24186.62
660.968	24220.62
661.728	24235.62
662.489	24296.62
663.249	24482.62
664.01	24532.62
664.77	24636.62
665.53	24761.62
666.29	24818.62
667.05	25013.62
667.81	25029.62
668.57	25131.62
669.329	25193.62
670.089	25314.62
670.849	25422.62
671.608	25528.62
672.368	25462.62
673.127	25450.62
673.886	25448.62
674.646	25393.62
675.405	25269.62
676.164	25271.62
676.923	25125.62
677.682	25001.62
678.44	24909.62
679.199	24834.62
679.958	24742.62
680.717	24824.62
681.475	25251.62
682.233	25835.62
682.992	26010.62
683.75	25432.62
684.508	24875.62
685.266	24303.62
686.024	23876.62
686.782	23535.62
687.54	23272.62
688.298	23013.62
689.056	22700.62
689.814	22309.62
690.571	21908.62
691.329	21403.62
692.086	20962.62
692.843	20579.62
693.601	20279.62
694.358	19827.62
695.115	19471.62
695.872	19145.62
696.629	18842.62
697.386	18623.62
698.143	18303.62
698.9	18046.62
699.656	17964.62
700.413	17715.62
701.169	17570.62
701.926	17483.62
702.682	17374.62
703.438	17231.62
704.195	17029.62
704.951	16995.62
705.707	16845.62
706.463	16806.62
707.219	16675.62
707.974	16706.62
708.73	16693.62
709.486	16599.62
710.241	16543.62
710.997	16479.62
711.752	16429.62
712.508	16082.62
713.263	15822.62
714.018	15444.62
714.773	15041.62
715.528	14586.62
716.283	14111.62
717.038	13639.62
717.793	13215.62
718.548	12733.62
719.303	12201.62
720.057	11678.62
720.812	11211.62
721.566	10891.62
722.321	10539.62
723.075	10203.62
723.829	9967.62
724.583	9725.62
725.337	9608.62
726.091	9398.62
726.845	9256.62
727.599	9232.62
728.353	9108.62
729.106	8975.62
729.86	8906.62
730.614	8859.62
731.367	8881.62
732.12	9085.62
732.874	8939.62
733.627	8637.62
734.38	8231.62
735.133	7835.62
735.886	7510.62
736.639	7242.62
737.392	7092.62
738.145	6994.62
738.897	6901.62
739.65	6832.62
740.403	6741.62
741.155	6577.62
741.907	6258.62
742.66	5820.62
743.412	5252.62
744.164	4570.62
744.916	3766.62
745.668	2842.62
746.42	1965.62
747.172	1195.62
747.924	647.62
748.676	354.62
749.427	241.62
750.179	184.62
750.93	166.62
751.682	144.62
752.433	135.62
753.184	132.62
753.935	126.62
754.687	121.62
755.438	108.62
756.189	108.62
756.939	103.62
757.69	87.62
758.441	107.62
759.192	100.62
759.942	94.62
760.693	103.62
761.443	106.62
762.194	96.62
762.944	103.62
763.694	106.62
764.444	90.62
765.194	100.62
765.944	84.62
766.694	81.62
767.444	83.62
768.194	93.62
768.943	84.62
769.693	80.62
770.443	76.62
771.192	75.62
771.941	75.62
772.691	80.62
773.44	69.62
774.189	66.62
774.938	64.62
775.687	66.62
776.436	63.62
777.185	66.62
777.934	58.62
778.683	66.62
779.431	68.62
780.18	67.62
780.928	52.62
781.677	64.62
782.425	70.62
783.173	73.62
783.922	65.62
784.67	62.62
785.418	63.62
786.166	77.62
786.914	59.62
787.661	52.62
788.409	67.62
789.157	70.62
789.904	59.62
790.652	69.62
791.399	57.62
792.147	73.62
792.894	49.62
793.641	58.62
794.388	114.62
795.136	52.62
795.883	47.62
796.629	45.62
797.376	53.62
798.123	47.62
798.87	53.62
799.616	45.62
800.363	50.62
801.109	50.62
801.856	53.62
802.602	40.62
803.349	53.62
804.095	52.62
804.841	44.62
805.587	46.62
806.333	47.62
807.079	42.62
807.825	41.62
808.57	44.62
809.316	44.62
810.062	48.62
810.807	47.62
811.553	46.62
812.298	39.62
813.043	51.62
813.788	32.62
814.534	36.62
815.279	35.62
816.024	43.62
816.769	45.62
817.514	28.62
818.258	39.62
819.003	40.62
819.748	217.62
820.492	42.62
821.237	100.62
821.981	32.62
822.726	45.62
823.47	34.62
824.214	27.62
824.958	47.62
825.702	31.62
826.446	37.62
827.19	33.62
827.934	40.62
828.678	29.62
829.421	47.62
830.165	29.62
830.909	39.62
831.652	25.62
832.395	35.62
833.139	26.62
833.882	42.62
834.625	31.62
835.368	44.62
836.111	27.62
836.854	30.62
837.597	37.62
838.34	39.62
839.083	39.62
839.825	33.62
840.568	42.62
841.311	38.62
842.053	32.62
842.795	34.62
843.538	30.62
844.28	32.62
845.022	21.62
845.764	24.62
846.506	32.62
847.248	30.62
847.99	23.62
848.732	27.62
849.474	27.62
850.215	22.62
850.957	28.62
851.698	25.62
852.44	35.62
853.181	35.62
853.922	37.62
854.664	34.62
855.405	42.62
856.146	34.62
856.887	31.62
857.628	35.62
858.369	22.62
859.109	27.62
859.85	37.62
860.591	26.62
861.331	35.62
862.072	39.62
862.812	24.62
863.553	33.62
864.293	36.62
865.033	35.62
865.773	33.62
866.513	28.62
867.253	28.62
867.993	31.62
868.733	20.62
869.473	31.62
870.213	28.62
870.952	28.62
871.692	31.62
872.431	33.62
873.171	27.62
873.91	32.62
874.649	21.62
875.388	41.62
876.128	39.62
876.867	38.62
877.606	23.62
878.345	38.62
879.083	23.62
879.822	21.62
880.561	36.62
881.299	31.62
882.038	35.62
882.777	27.62
883.515	27.62
884.253	146.62
884.992	38.62
885.73	18.62
886.468	29.62
887.206	49.62
887.944	42.62
888.682	24.62
889.42	25.62
890.157	23.62
890.895	30.62
891.633	32.62
892.37	33.62
893.108	41.62
893.845	25.62
894.583	29.62
895.32	32.62
896.057	24.62
896.794	28.62
897.531	31.62
898.268	15.62
899.005	30.62
899.742	35.62
900.479	12.62
901.215	17.62
901.952	26.62
902.689	28.62
903.425	28.62
904.162	7.62
904.898	20.62
905.634	17.62
906.37	29.62
907.106	21.62
907.843	24.62
908.579	22.62
909.314	19.62
910.05	28.62
910.786	28.62
911.522	16.62
912.257	7.62
912.993	11.62
913.728	27.62
914.464	36.62
915.199	21.62
915.935	38.62
916.67	28.62
917.405	23.62
918.14	21.62
918.875	33.62
919.61	28.62
920.345	30.62
921.08	37.62
921.814	20.62
922.549	18.62
923.284	32.62
924.018	18.62
924.752	21.62
925.487	21.62
926.221	23.62
926.955	20.62
927.69	24.62
928.424	23.62
929.158	30.62
929.892	9.62
930.625	25.62
931.359	14.62
932.093	22.62
932.827	35.62
933.56	25.62
934.294	20.62
935.027	23.62
935.761	25.62
936.494	34.62
937.227	17.62
937.96	19.62
938.693	21.62
939.426	22.62
940.159	16.62
940.892	24.62
941.625	16.62
942.358	19.62
943.091	29.62
943.823	15.62
944.556	22.62
945.288	34.62
946.021	20.62
946.753	20.62
947.485	34.62
948.217	24.62
948.95	27.62
949.682	5.62
950.414	25.62
951.146	23.62
951.877	19.62
952.609	24.62
953.341	25.62
954.073	24.62
954.804	23.62
955.536	30.62
956.267	25.62
956.998	13.62
957.73	23.62
958.461	22.62
959.192	24.62
959.923	11.62
960.654	34.62
961.385	16.62
962.116	17.62
962.847	18.62
963.578	28.62
964.308	34.62
965.039	20.62
965.769	15.62
966.5	26.62
967.23	8.62
967.961	7.62
968.691	37.62
969.421	20.62
970.151	27.62
970.881	24.62
971.611	23.62
972.341	20.62
973.071	6.62
973.801	33.62
974.53	21.62
975.26	38.62
975.99	20.62
976.719	15.62
977.448	20.62
978.178	29.62
978.907	28.62
979.636	30.62
980.365	10.62
981.095	18.62
981.824	18.62
982.553	20.62
983.281	9.62
984.01	-0.38
984.739	2.62
985.468	-0.38
986.196	-8.38
986.925	43.62
987.653	41.62
988.382	19.62
989.11	27.62
989.838	36.62
990.566	30.62
991.295	18.62
992.023	18.62
992.751	20.62
993.478	14.62
994.206	23.62
994.934	18.62
995.662	-1.38
996.389	-1.38
997.117	1.62
997.845	7.62
