Data from White_Bg_Subt2_011.txt Node
Date: Tue Aug 27 12:43:04 EDT 2019
User: wcc
Spectrometer: QEPB0759
Trigger mode: 0
Integration Time (sec): 1.000000E0
Scans to average: 1
Electric dark correction enabled: true
Nonlinearity correction enabled: false
Boxcar width: 0
XAxis mode: Wavelengths
Number of Pixels in Spectrum: 1044
>>>>>Begin Spectral Data<<<<<
197.938	29
198.749	39
199.559	29
200.369	34
201.179	21
201.988	38
202.798	38
203.608	20
204.417	22
205.227	28
206.036	30
206.846	40
207.655	25
208.464	31
209.273	29
210.082	33
210.891	27
211.7	29
212.508	29
213.317	23
214.125	25
214.934	30
215.742	22
216.55	28
217.359	24
218.167	26
218.975	36
219.782	33
220.59	18
221.398	17
222.206	33
223.013	30
223.82	34
224.628	28
225.435	22
226.242	24
227.049	24
227.856	18
228.663	26
229.47	26
230.277	33
231.083	27
231.89	19
232.696	34
233.502	22
234.309	36
235.115	35
235.921	21
236.727	25
237.533	18
238.339	34
239.144	25
239.95	25
240.756	29
241.561	33
242.366	29
243.172	36
243.977	21
244.782	31
245.587	34
246.392	34
247.197	15
248.001	23
248.806	31
249.611	36
250.415	22
251.219	23
252.024	31
252.828	25
253.632	22
254.436	35
255.24	39
256.044	28
256.848	24
257.651	27
258.455	37
259.258	31
260.062	568
260.865	27
261.668	31
262.471	17
263.274	25
264.077	24
264.88	19
265.683	16
266.486	9
267.288	20
268.091	43
268.893	17
269.696	26
270.498	21
271.3	35
272.102	30
272.904	28
273.706	31
274.508	22
275.309	37
276.111	33
276.913	35
277.714	32
278.515	22
279.317	33
280.118	28
280.919	21
281.72	33
282.521	27
283.322	36
284.122	28
284.923	19
285.724	31
286.524	41
287.325	28
288.125	7
288.925	28
289.725	9
290.525	34
291.325	21
292.125	11
292.925	37
293.724	30
294.524	17
295.324	31
296.123	24
296.922	28
297.722	42
298.521	31
299.32	32
300.119	23
300.918	23
301.716	25
302.515	32
303.314	28
304.112	36
304.911	30
305.709	29
306.507	29
307.306	22
308.104	38
308.902	33
309.7	30
310.498	26
311.295	24
312.093	34
312.891	29
313.688	39
314.485	19
315.283	33
316.08	29
316.877	41
317.674	19
318.471	28
319.268	28
320.065	33
320.862	32
321.658	28
322.455	33
323.251	18
324.047	31
324.844	29
325.64	21
326.436	36
327.232	15
328.028	26
328.824	41
329.62	35
330.415	34
331.211	23
332.006	22
332.802	28
333.597	34
334.392	29
335.187	32
335.982	30
336.777	34
337.572	30
338.367	36
339.162	35
339.956	20
340.751	27
341.545	18
342.34	28
343.134	11
343.928	30
344.722	30
345.516	21
346.31	21
347.104	37
347.898	32
348.691	19
349.485	26
350.278	34
351.072	51
351.865	201
352.658	29
353.452	24
354.245	29
355.038	35
355.83	31
356.623	36
357.416	24
358.209	25
359.001	30
359.794	29
360.586	39
361.378	22
362.17	6
362.963	24
363.755	29
364.546	27
365.338	26
366.13	29
366.922	22
367.713	22
368.505	38
369.296	22
370.088	24
370.879	42
371.67	28
372.461	28
373.252	24
374.043	21
374.834	19
375.625	44
376.415	16
377.206	18
377.996	26
378.787	34
379.577	20
380.367	20
381.157	20
381.947	25
382.737	4
383.527	34
384.317	36
385.107	24
385.896	13
386.686	21
387.475	29
388.265	27
389.054	23
389.843	23
390.632	19
391.421	24
392.21	16
392.999	20
393.788	27
394.576	37
395.365	28
396.154	16
396.942	23
397.73	18
398.519	33
399.307	23
400.095	22
400.883	12
401.671	25
402.459	25
403.246	19
404.034	38
404.822	22
405.609	33
406.396	22
407.184	24
407.971	21
408.758	32
409.545	22
410.332	31
411.119	33
411.906	10
412.693	25
413.479	26
414.266	24
415.052	25
415.839	17
416.625	25
417.411	39
418.197	33
418.983	34
419.769	31
420.555	23
421.341	28
422.127	24
422.912	26
423.698	12
424.483	9
425.269	30
426.054	11
426.839	34
427.624	13
428.409	32
429.194	38
429.979	39
430.764	36
431.549	34
432.333	35
433.118	8
433.902	20
434.687	30
435.471	27
436.255	20
437.039	37
437.823	29
438.607	34
439.391	29
440.175	12
440.958	27
441.742	31
442.526	17
443.309	27
444.092	42
444.876	35
445.659	35
446.442	30
447.225	18
448.008	48
448.791	39
449.573	31
450.356	37
451.139	32
451.921	12
452.704	29
453.486	37
454.268	42
455.05	35
455.833	26
456.615	39
457.396	43
458.178	26
458.96	19
459.742	38
460.523	28
461.305	31
462.086	34
462.868	45
463.649	36
464.43	41
465.211	34
465.992	35
466.773	45
467.554	31
468.335	44
469.115	34
469.896	33
470.676	26
471.457	26
472.237	35
473.018	26
473.798	43
474.578	39
475.358	21
476.138	37
476.918	36
477.697	30
478.477	40
479.257	21
480.036	21
480.816	34
481.595	36
482.374	12
483.153	33
483.932	28
484.711	33
485.49	25
486.269	25
487.048	23
487.827	14
488.605	16
489.384	24
490.162	11
490.941	24
491.719	27
492.497	34
493.275	23
494.053	27
494.831	32
495.609	32
496.387	24
497.164	23
497.942	39
498.72	30
499.497	30
500.274	26
501.052	29
501.829	34
502.606	41
503.383	36
504.16	32
504.937	43
505.714	47
506.49	59
507.267	39
508.043	40
508.82	51
509.596	31
510.373	32
511.149	44
511.925	30
512.701	26
513.477	34
514.253	30
515.029	36
515.804	32
516.58	41
517.356	38
518.131	41
518.906	37
519.682	32
520.457	36
521.232	24
522.007	33
522.782	38
523.557	42
524.332	40
525.107	51
525.881	48
526.656	40
527.43	48
528.205	39
528.979	46
529.753	42
530.527	55
531.302	32
532.076	45
532.849	35
533.623	39
534.397	30
535.171	39
535.944	50
536.718	47
537.491	46
538.265	37
539.038	46
539.811	39
540.584	33
541.357	22
542.13	55
542.903	41
543.676	37
544.449	30
545.221	39
545.994	35
546.766	34
547.539	24
548.311	52
549.083	43
549.855	35
550.627	47
551.399	56
552.171	43
552.943	53
553.715	44
554.486	59
555.258	39
556.029	41
556.801	51
557.572	52
558.343	47
559.114	48
559.886	44
560.657	44
561.427	39
562.198	53
562.969	47
563.74	53
564.51	38
565.281	44
566.051	44
566.822	37
567.592	43
568.362	43
569.132	54
569.902	54
570.672	53
571.442	56
572.212	53
572.982	59
573.751	48
574.521	63
575.29	28
576.06	50
576.829	33
577.598	41
578.367	31
579.136	44
579.905	39
580.674	51
581.443	47
582.212	49
582.981	43
583.749	35
584.518	46
585.286	35
586.054	54
586.823	42
587.591	30
588.359	48
589.127	52
589.895	37
590.663	51
591.431	47
592.198	51
592.966	45
593.734	43
594.501	34
595.268	55
596.036	50
596.803	56
597.57	46
598.337	36
599.104	48
599.871	51
600.638	40
601.405	54
602.171	45
602.938	48
603.704	45
604.471	41
605.237	43
606.004	33
606.77	46
607.536	31
608.302	40
609.068	54
609.834	36
610.599	31
611.365	30
612.131	40
612.896	37
613.662	36
614.427	45
615.193	35
615.958	27
616.723	43
617.488	41
618.253	32
619.018	39
619.783	42
620.548	47
621.312	38
622.077	41
622.842	44
623.606	40
624.37	35
625.135	35
625.899	61
626.663	41
627.427	45
628.191	42
628.955	47
629.719	30
630.483	47
631.246	36
632.01	39
632.773	51
633.537	56
634.3	44
635.063	32
635.827	27
636.59	29
637.353	33
638.116	46
638.879	45
639.641	40
640.404	57
641.167	50
641.929	46
642.692	30
643.454	34
644.216	47
644.979	38
645.741	42
646.503	47
647.265	46
648.027	38
648.789	50
649.551	42
650.312	33
651.074	50
651.835	46
652.597	54
653.358	42
654.12	41
654.881	22
655.642	31
656.403	44
657.164	44
657.925	43
658.686	44
659.447	50
660.207	45
660.968	42
661.728	40
662.489	58
663.249	45
664.01	35
664.77	32
665.53	44
666.29	48
667.05	52
667.81	48
668.57	54
669.329	38
670.089	32
670.849	38
671.608	50
672.368	42
673.127	49
673.886	46
674.646	43
675.405	47
676.164	40
676.923	58
677.682	41
678.44	58
679.199	53
679.958	7
680.717	43
681.475	49
682.233	48
682.992	40
683.75	42
684.508	40
685.266	46
686.024	52
686.782	44
687.54	48
688.298	40
689.056	32
689.814	52
690.571	51
691.329	61
692.086	49
692.843	35
693.601	42
694.358	44
695.115	51
695.872	51
696.629	46
697.386	50
698.143	59
698.9	41
699.656	39
700.413	37
701.169	50
701.926	48
702.682	48
703.438	48
704.195	44
704.951	39
705.707	29
706.463	38
707.219	27
707.974	39
708.73	33
709.486	49
710.241	34
710.997	36
711.752	42
712.508	38
713.263	45
714.018	37
714.773	47
715.528	22
716.283	36
717.038	36
717.793	47
718.548	35
719.303	43
720.057	24
720.812	36
721.566	47
722.321	41
723.075	30
723.829	45
724.583	33
725.337	42
726.091	21
726.845	40
727.599	23
728.353	36
729.106	33
729.86	49
730.614	22
731.367	90
732.12	33
732.874	40
733.627	42
734.38	37
735.133	27
735.886	24
736.639	27
737.392	29
738.145	24
738.897	28
739.65	36
740.403	41
741.155	27
741.907	33
742.66	31
743.412	29
744.164	35
744.916	40
745.668	26
746.42	44
747.172	35
747.924	28
748.676	33
749.427	26
750.179	36
750.93	33
751.682	24
752.433	29
753.184	36
753.935	42
754.687	28
755.438	38
756.189	32
756.939	19
757.69	28
758.441	40
759.192	26
759.942	34
760.693	34
761.443	32
762.194	41
762.944	19
763.694	33
764.444	20
765.194	36
765.944	25
766.694	32
767.444	37
768.194	33
768.943	21
769.693	22
770.443	24
771.192	32
771.941	16
772.691	26
773.44	22
774.189	25
774.938	34
775.687	19
776.436	18
777.185	23
777.934	30
778.683	28
779.431	27
780.18	30
780.928	22
781.677	30
782.425	33
783.173	40
783.922	24
784.67	15
785.418	38
786.166	33
786.914	31
787.661	23
788.409	31
789.157	35
789.904	24
790.652	29
791.399	21
792.147	28
792.894	23
793.641	24
794.388	243
795.136	16
795.883	34
796.629	28
797.376	32
798.123	12
798.87	33
799.616	23
800.363	26
801.109	24
801.856	31
802.602	17
803.349	29
804.095	41
804.841	26
805.587	23
806.333	43
807.079	40
807.825	28
808.57	30
809.316	38
810.062	23
810.807	23
811.553	36
812.298	33
813.043	30
813.788	33
814.534	22
815.279	18
816.024	31
816.769	25
817.514	28
818.258	28
819.003	34
819.748	463
820.492	23
821.237	127
821.981	19
822.726	31
823.47	20
824.214	23
824.958	27
825.702	34
826.446	21
827.19	32
827.934	25
828.678	23
829.421	35
830.165	33
830.909	22
831.652	19
832.395	22
833.139	19
833.882	31
834.625	28
835.368	20
836.111	24
836.854	29
837.597	23
838.34	28
839.083	23
839.825	8
840.568	24
841.311	17
842.053	30
842.795	25
843.538	22
844.28	12
845.022	5
845.764	24
846.506	10
847.248	32
847.99	14
848.732	30
849.474	22
850.215	20
850.957	27
851.698	21
852.44	24
853.181	39
853.922	38
854.664	20
855.405	39
856.146	36
856.887	26
857.628	14
858.369	15
859.109	28
859.85	30
860.591	31
861.331	33
862.072	21
862.812	20
863.553	24
864.293	40
865.033	25
865.773	27
866.513	21
867.253	30
867.993	21
868.733	37
869.473	20
870.213	28
870.952	22
871.692	23
872.431	31
873.171	26
873.91	31
874.649	21
875.388	34
876.128	28
876.867	17
877.606	22
878.345	35
879.083	29
879.822	27
880.561	31
881.299	46
882.038	11
882.777	23
883.515	29
884.253	221
884.992	39
885.73	26
886.468	29
887.206	46
887.944	48
888.682	32
889.42	33
890.157	20
890.895	23
891.633	33
892.37	38
893.108	40
893.845	28
894.583	26
895.32	25
896.057	21
896.794	30
897.531	33
898.268	21
899.005	27
899.742	30
900.479	16
901.215	23
901.952	33
902.689	38
903.425	27
904.162	25
904.898	24
905.634	18
906.37	21
907.106	25
907.843	27
908.579	28
909.314	23
910.05	18
910.786	26
911.522	22
912.257	23
912.993	20
913.728	13
914.464	35
915.199	28
915.935	38
916.67	35
917.405	19
918.14	19
918.875	31
919.61	40
920.345	35
921.08	30
921.814	20
922.549	26
923.284	-16
924.018	18
924.752	25
925.487	38
926.221	17
926.955	26
927.69	17
928.424	22
929.158	30
929.892	17
930.625	29
931.359	31
932.093	20
932.827	34
933.56	32
934.294	14
935.027	15
935.761	44
936.494	29
937.227	26
937.96	33
938.693	32
939.426	29
940.159	24
940.892	22
941.625	31
942.358	29
943.091	33
943.823	30
944.556	28
945.288	24
946.021	32
946.753	33
947.485	34
948.217	33
948.95	34
949.682	17
950.414	22
951.146	26
951.877	25
952.609	32
953.341	13
954.073	34
954.804	28
955.536	43
956.267	24
956.998	12
957.73	23
958.461	32
959.192	31
959.923	31
960.654	43
961.385	24
962.116	18
962.847	27
963.578	15
964.308	36
965.039	22
965.769	22
966.5	26
967.23	19
967.961	13
968.691	28
969.421	22
970.151	25
970.881	34
971.611	34
972.341	13
973.071	16
973.801	33
974.53	33
975.26	30
975.99	30
976.719	24
977.448	34
978.178	34
978.907	34
979.636	32
980.365	30
981.095	30
981.824	38
982.553	33
983.281	-1
984.01	2
984.739	1
985.468	-4
986.196	-8
986.925	35
987.653	35
988.382	12
989.11	24
989.838	32
990.566	18
991.295	16
992.023	34
992.751	24
993.478	26
994.206	39
994.934	15
995.662	0
996.389	-3
997.117	0
997.845	12
