Data from White_Bg_Subt2_004.txt Node
Date: Fri Aug 23 09:20:46 EDT 2019
User: wcc
Spectrometer: QEPB0759
Trigger mode: 0
Integration Time (sec): 1.000000E0
Scans to average: 1
Electric dark correction enabled: true
Nonlinearity correction enabled: true
Boxcar width: 0
XAxis mode: Wavelengths
Number of Pixels in Spectrum: 1044
>>>>>Begin Spectral Data<<<<<
197.938	-14.35
198.749	-14.35
199.559	-11.28
200.369	-10.25
201.179	-14.35
201.988	-24.6
202.798	-16.4
203.608	-22.55
204.417	-25.63
205.227	-10.25
206.036	-19.48
206.846	-27.68
207.655	-26.65
208.464	-12.3
209.273	-17.42
210.082	-21.53
210.891	-25.63
211.7	-6.15
212.508	-28.7
213.317	-18.45
214.125	-22.55
214.934	-7.18
215.742	-10.25
216.55	-9.23
217.359	-23.58
218.167	-16.4
218.975	-13.32
219.782	-4.1
220.59	-34.86
221.398	-17.43
222.206	-31.77
223.013	-6.15
223.82	-15.38
224.628	-21.53
225.435	-25.63
226.242	-42.03
227.049	-25.63
227.856	-17.43
228.663	-25.63
229.47	-9.23
230.277	-14.35
231.083	-11.28
231.89	-27.68
232.696	-21.53
233.502	-23.58
234.309	-26.65
235.115	-28.7
235.921	-24.6
236.727	-12.3
237.533	-44.08
238.339	-42.03
239.144	-23.58
239.95	-16.4
240.756	-24.6
241.561	-30.75
242.366	-24.6
243.172	-28.7
243.977	-21.52
244.782	-26.65
245.587	-18.45
246.392	-14.35
247.197	-15.38
248.001	-18.45
248.806	-21.53
249.611	-23.58
250.415	-9.23
251.219	-24.6
252.024	-10.25
252.828	-9.23
253.632	-21.53
254.436	-11.28
255.24	-29.73
256.044	-6.15
256.848	-14.35
257.651	-16.4
258.455	-30.75
259.258	-14.35
260.062	802.55
260.865	-28.7
261.668	-16.4
262.471	-27.68
263.274	-29.73
264.077	-27.68
264.88	-25.63
265.683	-20.5
266.486	-12.3
267.288	-14.35
268.091	6.15
268.893	-50.23
269.696	-21.53
270.498	-24.6
271.3	-28.7
272.102	-17.42
272.904	-30.75
273.706	-12.3
274.508	-4.1
275.309	-22.55
276.111	-19.48
276.913	-8.2
277.714	-22.55
278.515	-37.93
279.317	-4.1
280.118	-14.35
280.919	-17.43
281.72	-10.25
282.521	-18.45
283.322	-13.33
284.122	-31.78
284.923	-29.73
285.724	-20.5
286.524	-13.33
287.325	-44.07
288.125	-46.13
288.925	-19.48
289.725	-48.18
290.525	-25.62
291.325	-21.53
292.125	-7.18
292.925	-27.68
293.724	-13.33
294.524	-43.06
295.324	-8.2
296.123	-44.08
296.922	-19.48
297.722	0
298.521	-24.6
299.32	0
300.119	-23.58
300.918	-32.8
301.716	-7.17
302.515	-46.13
303.314	-22.55
304.112	-21.53
304.911	-19.47
305.709	-22.55
306.507	-24.6
307.306	-32.8
308.104	-10.25
308.902	-19.48
309.7	-34.85
310.498	-35.87
311.295	-11.28
312.093	-23.57
312.891	-32.8
313.688	-18.45
314.485	-14.35
315.283	-9.22
316.08	-15.38
316.877	-31.78
317.674	-19.48
318.471	-31.78
319.268	-12.3
320.065	-28.7
320.862	-43.05
321.658	-6.15
322.455	-3.08
323.251	-28.7
324.047	-17.43
324.844	-17.42
325.64	-17.43
326.436	-21.53
327.232	-22.55
328.028	-22.55
328.824	-15.38
329.62	-21.53
330.415	-16.4
331.211	-16.4
332.006	-11.28
332.802	-34.85
333.597	-19.48
334.392	-19.48
335.187	-20.5
335.982	-3.08
336.777	-13.33
337.572	-28.7
338.367	-24.6
339.162	-11.27
339.956	-17.43
340.751	-18.45
341.545	-24.6
342.34	-39.98
343.134	-1.03
343.928	-21.52
344.722	-17.42
345.516	-17.43
346.31	-33.83
347.104	-26.65
347.898	-14.35
348.691	-39.98
349.485	-8.2
350.278	-23.58
351.072	-24.6
351.865	-528.23
352.658	-13.33
353.452	-32.8
354.245	-19.48
355.038	-29.73
355.83	-16.4
356.623	-28.7
357.416	-19.48
358.209	-16.4
359.001	-28.7
359.794	-15.38
360.586	-24.6
361.378	-20.5
362.17	-22.55
362.963	-34.86
363.755	-8.2
364.546	-27.68
365.338	-20.5
366.13	-24.6
366.922	-39.98
367.713	-22.55
368.505	-27.68
369.296	-21.53
370.088	-13.33
370.879	-33.83
371.67	-34.85
372.461	4.1
373.252	-9.23
374.043	-17.42
374.834	-20.5
375.625	-14.35
376.415	-29.72
377.206	-21.53
377.996	-27.68
378.787	-17.42
379.577	-23.58
380.367	-17.43
381.157	-14.35
381.947	-13.33
382.737	-19.48
383.527	-22.55
384.317	-9.22
385.107	0
385.896	-24.6
386.686	-24.6
387.475	-26.65
388.265	-25.63
389.054	-28.69
389.843	-17.43
390.632	-16.4
391.421	-20.5
392.21	-16.4
392.999	-24.6
393.788	-11.28
394.576	-17.43
395.365	-25.63
396.154	-15.38
396.942	-28.7
397.73	-30.75
398.519	-14.35
399.307	-19.48
400.095	-33.83
400.883	-16.4
401.671	-16.4
402.459	-22.55
403.246	-34.85
404.034	-32.8
404.822	-24.6
405.609	-26.65
406.396	-17.42
407.184	-14.35
407.971	-11.28
408.758	-15.38
409.545	-13.33
410.332	-37.93
411.119	-13.33
411.906	-21.53
412.693	-14.35
413.479	-20.5
414.266	-29.73
415.052	-11.28
415.839	-11.28
416.625	-20.5
417.411	-10.25
418.197	-19.47
418.983	-28.7
419.769	-14.35
420.555	-31.78
421.341	-8.2
422.127	-24.6
422.912	-28.7
423.698	-23.57
424.483	-36.9
425.269	-31.78
426.054	-28.71
426.839	-14.35
427.624	-11.28
428.409	-20.5
429.194	-5.13
429.979	-12.3
430.764	-14.35
431.549	-10.25
432.333	-27.68
433.118	-21.53
433.902	-27.67
434.687	-59.45
435.471	-60.48
436.255	-42.03
437.039	-12.3
437.823	-26.65
438.607	-16.4
439.391	-39.98
440.175	-19.48
440.958	-24.6
441.742	-31.78
442.526	-27.68
443.309	-27.68
444.092	-30.75
444.876	-21.53
445.659	-29.73
446.442	-29.72
447.225	-30.75
448.008	-28.7
448.791	-38.95
449.573	9.22
450.356	-16.4
451.139	-37.92
451.921	-17.43
452.704	-12.3
453.486	-25.63
454.268	-37.92
455.05	-12.3
455.833	-35.88
456.615	-15.38
457.396	-33.83
458.178	-30.75
458.96	-21.53
459.742	-15.38
460.523	-28.7
461.305	-14.35
462.086	-20.5
462.868	-34.85
463.649	-17.43
464.43	-19.48
465.211	-25.62
465.992	-9.23
466.773	-28.7
467.554	-3.08
468.335	-15.38
469.115	-18.45
469.896	-19.48
470.676	-25.63
471.457	-31.78
472.237	-31.78
473.018	-37.93
473.798	-20.5
474.578	-24.6
475.358	-3.08
476.138	-10.25
476.918	-14.35
477.697	-15.38
478.477	-15.37
479.257	-6.15
480.036	-23.58
480.816	-37.93
481.595	-8.2
482.374	-35.88
483.153	-19.47
483.932	-20.5
484.711	-26.65
485.49	-38.95
486.269	-27.68
487.048	-57.41
487.827	-45.1
488.605	-38.95
489.384	-36.9
490.162	-29.73
490.941	-26.65
491.719	-21.53
492.497	-37.93
493.275	-32.8
494.053	-15.38
494.831	-15.38
495.609	-13.33
496.387	-19.47
497.164	-46.13
497.942	-16.4
498.72	-15.38
499.497	-8.2
500.274	-1.03
501.052	-25.63
501.829	-13.33
502.606	-5.13
503.383	-14.35
504.16	-1.03
504.937	-16.4
505.714	-11.28
506.49	3.07
507.267	-23.58
508.043	-33.83
508.82	-29.72
509.596	5.13
510.373	-20.5
511.149	-13.33
511.925	-33.83
512.701	-7.18
513.477	-10.25
514.253	-24.6
515.029	-25.63
515.804	-19.48
516.58	-21.52
517.356	-3.08
518.131	-14.35
518.906	19.48
519.682	-4.1
520.457	-17.43
521.232	2.05
522.007	-8.2
522.782	7.18
523.557	2.05
524.332	-6.15
525.107	0
525.881	-9.23
526.656	-8.2
527.43	-8.2
528.205	-19.48
528.979	7.18
529.753	3.08
530.527	0
531.302	-3.08
532.076	-6.15
532.849	3.08
533.623	-20.5
534.397	-4.1
535.171	-6.15
535.944	2.05
536.718	-33.83
537.491	-5.12
538.265	-10.25
539.038	-14.35
539.811	-30.75
540.584	-26.65
541.357	-45.1
542.13	-65.59
542.903	-53.29
543.676	-49.2
544.449	-51.25
545.221	-59.45
545.994	-15.38
546.766	-32.8
547.539	-28.7
548.311	-26.65
549.083	-12.3
549.855	-16.4
550.627	-24.6
551.399	-24.6
552.171	-37.92
552.943	-19.48
553.715	-16.4
554.486	3.08
555.258	2.05
556.029	-4.1
556.801	21.53
557.572	-10.25
558.343	8.2
559.114	-2.05
559.886	3.07
560.657	10.25
561.427	-3.08
562.198	1.03
562.969	4.1
563.74	7.18
564.51	-9.23
565.281	-10.25
566.051	-2.05
566.822	12.3
567.592	7.18
568.362	7.18
569.132	-7.18
569.902	14.35
570.672	4.1
571.442	-8.2
572.212	-7.18
572.982	-1.03
573.751	-7.18
574.521	3.08
575.29	1.02
576.06	-14.35
576.829	-21.53
577.598	-13.33
578.367	-22.55
579.136	-4.1
579.905	-15.38
580.674	1.02
581.443	-28.7
582.212	-25.63
582.981	-24.6
583.749	-9.23
584.518	-20.5
585.286	-10.25
586.054	-28.7
586.823	-21.52
587.591	-18.45
588.359	-23.57
589.127	-19.47
589.895	-2.05
590.663	-49.2
591.431	-22.55
592.198	-8.2
592.966	-5.12
593.734	-11.27
594.501	-20.5
595.268	16.4
596.036	-11.27
596.803	-4.1
597.57	-8.2
598.337	-10.25
599.104	-29.73
599.871	-9.22
600.638	-17.42
601.405	-12.3
602.171	-2.05
602.938	-26.65
603.704	-2.05
604.471	-16.4
605.237	-17.42
606.004	-27.68
606.77	-25.62
607.536	-25.62
608.302	-29.72
609.068	-55.35
609.834	-58.42
610.599	-114.79
611.365	-67.65
612.131	-61.5
612.896	-31.77
613.662	-53.29
614.427	-18.45
615.193	-47.15
615.958	-18.45
616.723	-33.82
617.488	-8.2
618.253	-11.28
619.018	-22.55
619.783	-22.55
620.548	-21.52
621.312	-33.83
622.077	-15.38
622.842	-27.68
623.606	-27.67
624.37	-23.58
625.135	-9.22
625.899	-9.22
626.663	-34.85
627.427	-22.55
628.191	-20.5
628.955	-47.15
629.719	-20.5
630.483	-33.82
631.246	-25.63
632.01	-19.48
632.773	-25.62
633.537	-15.38
634.3	-1.03
635.063	-3.08
635.827	12.3
636.59	-19.48
637.353	-14.35
638.116	-6.15
638.879	-3.08
639.641	3.08
640.404	-15.38
641.167	-11.28
641.929	-12.3
642.692	-1.03
643.454	-21.53
644.216	-19.48
644.979	-18.45
645.741	-19.47
646.503	-2.05
647.265	-3.07
648.027	-25.62
648.789	-10.25
649.551	-12.3
650.312	-20.5
651.074	-11.28
651.835	-19.48
652.597	-5.13
653.358	-12.3
654.12	4.1
654.881	-4.1
655.642	2.05
656.403	-4.1
657.164	-16.4
657.925	9.23
658.686	-22.55
659.447	-15.38
660.207	-2.05
660.968	0
661.728	3.07
662.489	-8.2
663.249	4.1
664.01	-4.1
664.77	-14.35
665.53	12.3
666.29	-13.33
667.05	-11.27
667.81	6.15
668.57	-1.03
669.329	-14.35
670.089	-23.58
670.849	2.05
671.608	-1.02
672.368	-3.08
673.127	-7.17
673.886	-2.05
674.646	-6.15
675.405	-4.1
676.164	6.15
676.923	-2.05
677.682	-1.02
678.44	5.13
679.199	-1.03
679.958	-33.82
680.717	7.18
681.475	13.33
682.233	0
682.992	-2.05
683.75	-9.23
684.508	-8.2
685.266	-10.25
686.024	9.22
686.782	-2.05
687.54	3.07
688.298	-12.3
689.056	-3.07
689.814	-10.25
690.571	9.23
691.329	14.35
692.086	-7.18
692.843	-2.05
693.601	-3.08
694.358	2.05
695.115	3.08
695.872	1.03
696.629	-11.28
697.386	-6.15
698.143	6.15
698.9	-2.05
699.656	-4.1
700.413	-9.23
701.169	-17.42
701.926	11.28
702.682	11.28
703.438	8.2
704.195	-6.15
704.951	-2.05
705.707	-33.83
706.463	-8.2
707.219	-15.38
707.974	-31.78
708.73	-26.65
709.486	-27.68
710.241	-17.43
710.997	-5.13
711.752	-22.55
712.508	-17.43
713.263	-24.6
714.018	7.18
714.773	-15.38
715.528	-2.05
716.283	-12.3
717.038	-14.35
717.793	-26.65
718.548	-30.75
719.303	1.03
720.057	-3.08
720.812	-20.5
721.566	-7.18
722.321	-39.98
723.075	-9.23
723.829	-25.62
724.583	-12.3
725.337	-20.5
726.091	0
726.845	-14.35
727.599	-29.73
728.353	-17.43
729.106	-19.48
729.86	-18.45
730.614	-22.55
731.367	-177.91
732.12	-9.23
732.874	-26.65
733.627	-13.33
734.38	-21.53
735.133	1.03
735.886	-17.43
736.639	-30.75
737.392	-23.58
738.145	-22.55
738.897	-5.12
739.65	4.1
740.403	-22.55
741.155	-22.55
741.907	-17.43
742.66	-22.55
743.412	-17.43
744.164	-20.5
744.916	-10.25
745.668	-36.9
746.42	-28.7
747.172	-2.05
747.924	-17.43
748.676	-19.48
749.427	-31.78
750.179	-23.58
750.93	-5.13
751.682	-7.18
752.433	-27.68
753.184	-33.82
753.935	-18.45
754.687	-20.5
755.438	-20.5
756.189	-8.2
756.939	-20.5
757.69	-16.4
758.441	-2.05
759.192	-15.38
759.942	-17.43
760.693	-12.3
761.443	-28.7
762.194	-12.3
762.944	-18.45
763.694	-11.27
764.444	-12.3
765.194	-18.45
765.944	-18.45
766.694	-24.6
767.444	-11.27
768.194	-8.2
768.943	-22.55
769.693	-26.65
770.443	-31.78
771.192	-44.08
771.941	-7.18
772.691	-37.93
773.44	-28.7
774.189	-13.32
774.938	-27.68
775.687	-25.63
776.436	-42.03
777.185	-16.4
777.934	-26.65
778.683	-16.4
779.431	-14.35
780.18	-24.6
780.928	-17.43
781.677	-25.63
782.425	-18.45
783.173	-38.95
783.922	-26.65
784.67	-21.52
785.418	-37.92
786.166	-26.65
786.914	0
787.661	-35.88
788.409	-21.53
789.157	-29.73
789.904	-22.55
790.652	-19.47
791.399	-17.43
792.147	-12.3
792.894	-10.25
793.641	-9.23
794.388	-181.11
795.136	-20.5
795.883	5.13
796.629	-16.4
797.376	-24.6
798.123	-12.3
798.87	-14.35
799.616	-48.18
800.363	-9.22
801.109	-26.65
801.856	-18.45
802.602	-21.53
803.349	-10.25
804.095	-6.15
804.841	-17.43
805.587	-26.65
806.333	-16.4
807.079	-14.35
807.825	-8.2
808.57	-31.78
809.316	-13.32
810.062	-35.88
810.807	-30.75
811.553	-26.65
812.298	-19.47
813.043	-16.4
813.788	-18.45
814.534	-5.13
815.279	-31.77
816.024	-36.9
816.769	-21.53
817.514	-28.7
818.258	-23.58
819.003	-14.35
819.748	-241.78
820.492	-12.3
821.237	-78.41
821.981	-4.1
822.726	-18.45
823.47	-18.45
824.214	-28.7
824.958	-31.78
825.702	-38.95
826.446	-39.97
827.19	-5.12
827.934	-22.55
828.678	-5.12
829.421	-21.52
830.165	-43.05
830.909	-11.28
831.652	-24.6
832.395	-24.6
833.139	-9.22
833.882	-32.79
834.625	-10.25
835.368	-24.6
836.111	-18.45
836.854	-42.03
837.597	-18.45
838.34	-18.45
839.083	-19.48
839.825	-23.57
840.568	-15.38
841.311	-17.43
842.053	-16.4
842.795	-4.1
843.538	-9.23
844.28	-23.58
845.022	-14.35
845.764	-27.67
846.506	-13.33
847.248	-30.75
847.99	-28.7
848.732	-15.38
849.474	-33.83
850.215	-18.45
850.957	-37.93
851.698	-27.68
852.44	-26.65
853.181	-14.35
853.922	-16.4
854.664	-16.4
855.405	-22.55
856.146	-21.53
856.887	-8.2
857.628	-27.67
858.369	-23.58
859.109	-35.87
859.85	-25.63
860.591	-14.35
861.331	-29.73
862.072	-10.25
862.812	-24.61
863.553	-10.25
864.293	-35.87
865.033	-35.88
865.773	-12.3
866.513	-20.5
867.253	-12.3
867.993	-3.08
868.733	-29.73
869.473	-30.75
870.213	-27.67
870.952	-33.83
871.692	-41
872.431	-18.45
873.171	-17.43
873.91	-15.38
874.649	-16.4
875.388	-16.4
876.128	-20.5
876.867	-30.76
877.606	-28.7
878.345	-17.43
879.083	-23.58
879.822	-17.43
880.561	-27.68
881.299	-37.93
882.038	-8.2
882.777	-1.03
883.515	-34.85
884.253	-31.41
884.992	-37.93
885.73	-18.45
886.468	-14.35
887.206	-26.65
887.944	-27.68
888.682	-34.85
889.42	-29.73
890.157	-21.53
890.895	-14.35
891.633	-33.79
892.37	-14.35
893.108	-32.8
893.845	-24.6
894.583	-24.6
895.32	-4.1
896.057	-17.43
896.794	-11.28
897.531	-28.7
898.268	-33.83
899.005	-22.55
899.742	-16.4
900.479	-36.9
901.215	-26.65
901.952	-20.5
902.689	-21.53
903.425	-15.38
904.162	-17.43
904.898	-17.43
905.634	-14.35
906.37	-14.35
907.106	1.03
907.843	-34.85
908.579	-31.78
909.314	-14.35
910.05	-24.6
910.786	-24.6
911.522	-24.61
912.257	-54.33
912.993	-15.38
913.728	-20.5
914.464	-36.9
915.199	-25.63
915.935	-10.25
916.67	-28.7
917.405	-35.88
918.14	-18.45
918.875	-16.4
919.61	-16.4
920.345	-31.77
921.08	-38.95
921.814	-26.65
922.549	-19.48
923.284	-32.8
924.018	-23.58
924.752	-32.8
925.487	-21.53
926.221	-12.3
926.955	-18.45
927.69	-14.35
928.424	-14.35
929.158	-22.55
929.892	-23.58
930.625	-22.55
931.359	-18.45
932.093	-15.38
932.827	-15.38
933.56	-27.68
934.294	-19.48
935.027	0
935.761	-18.45
936.494	-11.28
937.227	-27.68
937.96	-27.68
938.693	-23.58
939.426	-20.5
940.159	-36.9
940.892	-18.45
941.625	-14.35
942.358	-23.57
943.091	-21.53
943.823	-26.65
944.556	-22.56
945.288	-2.05
946.021	-21.53
946.753	-17.43
947.485	-23.58
948.217	-6.15
948.95	-31.78
949.682	-20.5
950.414	-22.55
951.146	-17.43
951.877	-20.5
952.609	10.25
953.341	-15.38
954.073	-46.12
954.804	-27.68
955.536	-14.35
956.267	-29.73
956.998	-4.1
957.73	-34.86
958.461	-34.86
959.192	0
959.923	-22.55
960.654	-24.6
961.385	-10.25
962.116	-21.53
962.847	-13.33
963.578	-11.28
964.308	-22.55
965.039	-22.55
965.769	-17.43
966.5	-31.78
967.23	-13.33
967.961	-17.43
968.691	-18.45
969.421	-21.53
970.151	-42.03
970.881	-27.68
971.611	-28.7
972.341	-18.45
973.071	-22.55
973.801	-10.25
974.53	-14.35
975.26	-32.8
975.99	-21.53
976.719	-22.55
977.448	-12.3
978.178	-19.48
978.907	-16.4
979.636	-12.3
980.365	-12.3
981.095	-20.5
981.824	-39.98
982.553	-30.75
983.281	-16.4
984.01	0
984.739	5.13
985.468	-5.13
986.196	2.05
986.925	-35.86
987.653	-19.48
988.382	-28.7
989.11	-25.63
989.838	-19.48
990.566	-17.42
991.295	-18.45
992.023	-23.57
992.751	-14.35
993.478	-7.18
994.206	-18.45
994.934	-30.75
995.662	-7.18
996.389	3.08
997.117	-6.16
997.845	8.21
