Data from White_Subt2_007.txt Node
Date: Tue Aug 27 12:40:06 EDT 2019
User: wcc
Spectrometer: QEPB0759
Trigger mode: 0
Integration Time (sec): 1.000000E0
Scans to average: 1
Electric dark correction enabled: true
Nonlinearity correction enabled: false
Boxcar width: 0
XAxis mode: Wavelengths
Number of Pixels in Spectrum: 1044
>>>>>Begin Spectral Data<<<<<
197.938	33.62
198.749	45.62
199.559	33.62
200.369	35.62
201.179	36.62
201.988	32.62
202.798	42.62
203.608	26.62
204.417	41.62
205.227	46.62
206.036	34.62
206.846	36.62
207.655	40.62
208.464	29.62
209.273	39.62
210.082	42.62
210.891	40.62
211.7	44.62
212.508	39.62
213.317	26.62
214.125	31.62
214.934	38.62
215.742	27.62
216.55	39.62
217.359	42.62
218.167	33.62
218.975	34.62
219.782	39.62
220.59	28.62
221.398	36.62
222.206	33.62
223.013	48.62
223.82	38.62
224.628	38.62
225.435	36.62
226.242	42.62
227.049	30.62
227.856	29.62
228.663	47.62
229.47	35.62
230.277	47.62
231.083	39.62
231.89	28.62
232.696	45.62
233.502	34.62
234.309	49.62
235.115	42.62
235.921	26.62
236.727	41.62
237.533	36.62
238.339	40.62
239.144	42.62
239.95	42.62
240.756	40.62
241.561	39.62
242.366	43.62
243.172	34.62
243.977	35.62
244.782	46.62
245.587	37.62
246.392	38.62
247.197	21.62
248.001	44.62
248.806	48.62
249.611	31.62
250.415	46.62
251.219	41.62
252.024	41.62
252.828	39.62
253.632	39.62
254.436	39.62
255.24	53.62
256.044	37.62
256.848	42.62
257.651	45.62
258.455	42.62
259.258	43.62
260.062	-2215.38
260.865	33.62
261.668	37.62
262.471	29.62
263.274	37.62
264.077	36.62
264.88	40.62
265.683	38.62
266.486	35.62
267.288	28.62
268.091	63.62
268.893	36.62
269.696	43.62
270.498	41.62
271.3	34.62
272.102	41.62
272.904	36.62
273.706	35.62
274.508	34.62
275.309	51.62
276.111	43.62
276.913	37.62
277.714	38.62
278.515	35.62
279.317	51.62
280.118	41.62
280.919	45.62
281.72	42.62
282.521	36.62
283.322	38.62
284.122	37.62
284.923	34.62
285.724	36.62
286.524	48.62
287.325	47.62
288.125	36.62
288.925	48.62
289.725	20.62
290.525	48.62
291.325	40.62
292.125	33.62
292.925	42.62
293.724	48.62
294.524	44.62
295.324	42.62
296.123	43.62
296.922	40.62
297.722	51.62
298.521	41.62
299.32	37.62
300.119	40.62
300.918	53.62
301.716	47.62
302.515	39.62
303.314	43.62
304.112	46.62
304.911	41.62
305.709	46.62
306.507	46.62
307.306	29.62
308.104	35.62
308.902	44.62
309.7	44.62
310.498	40.62
311.295	51.62
312.093	42.62
312.891	47.62
313.688	47.62
314.485	34.62
315.283	50.62
316.08	47.62
316.877	54.62
317.674	41.62
318.471	53.62
319.268	46.62
320.065	36.62
320.862	48.62
321.658	45.62
322.455	49.62
323.251	36.62
324.047	48.62
324.844	47.62
325.64	40.62
326.436	48.62
327.232	34.62
328.028	38.62
328.824	46.62
329.62	36.62
330.415	42.62
331.211	31.62
332.006	47.62
332.802	56.62
333.597	45.62
334.392	53.62
335.187	45.62
335.982	29.62
336.777	37.62
337.572	41.62
338.367	40.62
339.162	39.62
339.956	42.62
340.751	39.62
341.545	57.62
342.34	21.62
343.134	43.62
343.928	45.62
344.722	39.62
345.516	39.62
346.31	44.62
347.104	52.62
347.898	47.62
348.691	39.62
349.485	38.62
350.278	36.62
351.072	42.62
351.865	513.62
352.658	54.62
353.452	36.62
354.245	36.62
355.038	40.62
355.83	43.62
356.623	58.62
357.416	44.62
358.209	46.62
359.001	51.62
359.794	40.62
360.586	52.62
361.378	58.62
362.17	20.62
362.963	42.62
363.755	35.62
364.546	42.62
365.338	58.62
366.13	54.62
366.922	52.62
367.713	60.62
368.505	66.62
369.296	57.62
370.088	43.62
370.879	56.62
371.67	60.62
372.461	43.62
373.252	59.62
374.043	60.62
374.834	79.62
375.625	86.62
376.415	79.62
377.206	94.62
377.996	119.62
378.787	131.62
379.577	147.62
380.367	172.62
381.157	204.62
381.947	243.62
382.737	263.62
383.527	326.62
384.317	378.62
385.107	438.62
385.896	476.62
386.686	555.62
387.475	643.62
388.265	737.62
389.054	821.62
389.843	931.62
390.632	1055.62
391.421	1171.62
392.21	1310.62
392.999	1424.62
393.788	1579.62
394.576	1743.62
395.365	1914.62
396.154	2080.62
396.942	2248.62
397.73	2432.62
398.519	2597.62
399.307	2731.62
400.095	2925.62
400.883	3060.62
401.671	3256.62
402.459	3464.62
403.246	3615.62
404.034	3837.62
404.822	4031.62
405.609	4178.62
406.396	4283.62
407.184	4408.62
407.971	4518.62
408.758	4583.62
409.545	4689.62
410.332	4815.62
411.119	4949.62
411.906	5102.62
412.693	5327.62
413.479	5565.62
414.266	5831.62
415.052	6159.62
415.839	6445.62
416.625	6781.62
417.411	7130.62
418.197	7471.62
418.983	7682.62
419.769	7696.62
420.555	7628.62
421.341	7546.62
422.127	7460.62
422.912	7415.62
423.698	7374.62
424.483	7426.62
425.269	7471.62
426.054	7648.62
426.839	7890.62
427.624	8081.62
428.409	8458.62
429.194	8690.62
429.979	9071.62
430.764	9364.62
431.549	9677.62
432.333	9903.62
433.118	10115.62
433.902	10255.62
434.687	10380.62
435.471	10503.62
436.255	10636.62
437.039	10834.62
437.823	10990.62
438.607	11094.62
439.391	11102.62
440.175	11104.62
440.958	11254.62
441.742	11372.62
442.526	11569.62
443.309	11735.62
444.092	11923.62
444.876	12137.62
445.659	12248.62
446.442	12464.62
447.225	12756.62
448.008	13345.62
448.791	14630.62
449.573	15728.62
450.356	15780.62
451.139	15585.62
451.921	15785.62
452.704	15613.62
453.486	15528.62
454.268	15822.62
455.05	16305.62
455.833	16864.62
456.615	17412.62
457.396	17897.62
458.178	18108.62
458.96	18138.62
459.742	18206.62
460.523	18526.62
461.305	19106.62
462.086	19768.62
462.868	19960.62
463.649	19885.62
464.43	19688.62
465.211	20041.62
465.992	21240.62
466.773	22988.62
467.554	24171.62
468.335	24116.62
469.115	23508.62
469.896	22783.62
470.676	22267.62
471.457	22491.62
472.237	24353.62
473.018	25208.62
473.798	23680.62
474.578	21991.62
475.358	21482.62
476.138	21263.62
476.918	21286.62
477.697	21493.62
478.477	21981.62
479.257	22858.62
480.036	24110.62
480.816	25200.62
481.595	25620.62
482.374	25666.62
483.153	25654.62
483.932	25374.62
484.711	25022.62
485.49	24929.62
486.269	25081.62
487.048	25379.62
487.827	25776.62
488.605	26367.62
489.384	26956.62
490.162	28173.62
490.941	30001.62
491.719	31544.62
492.497	31727.62
493.275	31209.62
494.053	30650.62
494.831	30165.62
495.609	30117.62
496.387	30041.62
497.164	30127.62
497.942	30195.62
498.72	30313.62
499.497	30567.62
500.274	30769.62
501.052	30997.62
501.829	31375.62
502.606	31663.62
503.383	31870.62
504.16	32103.62
504.937	32142.62
505.714	32412.62
506.49	32574.62
507.267	32806.62
508.043	33070.62
508.82	33275.62
509.596	33588.62
510.373	33896.62
511.149	34296.62
511.925	34785.62
512.701	35053.62
513.477	35386.62
514.253	35744.62
515.029	36022.62
515.804	36314.62
516.58	36671.62
517.356	37020.62
518.131	37407.62
518.906	37647.62
519.682	37929.62
520.457	38202.62
521.232	38491.62
522.007	38779.62
522.782	38928.62
523.557	39246.62
524.332	39230.62
525.107	39430.62
525.881	39473.62
526.656	39573.62
527.43	39667.62
528.205	39790.62
528.979	39760.62
529.753	39567.62
530.527	39528.62
531.302	39368.62
532.076	39337.62
532.849	39138.62
533.623	39060.62
534.397	38847.62
535.171	38612.62
535.944	38498.62
536.718	38267.62
537.491	38110.62
538.265	37894.62
539.038	37904.62
539.811	37915.62
540.584	37974.62
541.357	38028.62
542.13	37976.62
542.903	37941.62
543.676	37847.62
544.449	37788.62
545.221	37824.62
545.994	37831.62
546.766	37842.62
547.539	37850.62
548.311	37946.62
549.083	38000.62
549.855	38064.62
550.627	38229.62
551.399	38405.62
552.171	38698.62
552.943	38897.62
553.715	39115.62
554.486	39435.62
555.258	39709.62
556.029	39946.62
556.801	40247.62
557.572	40544.62
558.343	40870.62
559.114	41106.62
559.886	41454.62
560.657	41762.62
561.427	41978.62
562.198	42164.62
562.969	42443.62
563.74	42545.62
564.51	42721.62
565.281	42904.62
566.051	43021.62
566.822	43043.62
567.592	42993.62
568.362	42983.62
569.132	42847.62
569.902	42624.62
570.672	42543.62
571.442	42331.62
572.212	42090.62
572.982	41788.62
573.751	41707.62
574.521	41582.62
575.29	41469.62
576.06	41323.62
576.829	41089.62
577.598	40971.62
578.367	40796.62
579.136	40739.62
579.905	40705.62
580.674	40612.62
581.443	40629.62
582.212	40641.62
582.981	40706.62
583.749	40654.62
584.518	40817.62
585.286	40830.62
586.054	40925.62
586.823	40947.62
587.591	40917.62
588.359	40960.62
589.127	41070.62
589.895	41028.62
590.663	41086.62
591.431	41015.62
592.198	41006.62
592.966	40953.62
593.734	40947.62
594.501	40722.62
595.268	40616.62
596.036	40535.62
596.803	40382.62
597.57	40051.62
598.337	39864.62
599.104	39697.62
599.871	39551.62
600.638	39280.62
601.405	39055.62
602.171	38875.62
602.938	38668.62
603.704	38582.62
604.471	38288.62
605.237	38174.62
606.004	38020.62
606.77	37821.62
607.536	37781.62
608.302	37744.62
609.068	37685.62
609.834	37740.62
610.599	37714.62
611.365	37759.62
612.131	37810.62
612.896	37737.62
613.662	37729.62
614.427	37703.62
615.193	37614.62
615.958	37653.62
616.723	37578.62
617.488	37506.62
618.253	37435.62
619.018	37375.62
619.783	37151.62
620.548	36976.62
621.312	36940.62
622.077	36789.62
622.842	36635.62
623.606	36407.62
624.37	36259.62
625.135	36009.62
625.899	35733.62
626.663	35500.62
627.427	35136.62
628.191	34893.62
628.955	34615.62
629.719	34341.62
630.483	34059.62
631.246	33655.62
632.01	33321.62
632.773	32945.62
633.537	32592.62
634.3	32250.62
635.063	31876.62
635.827	31525.62
636.59	31064.62
637.353	30731.62
638.116	30303.62
638.879	30019.62
639.641	29702.62
640.404	29382.62
641.167	29026.62
641.929	28825.62
642.692	28500.62
643.454	28244.62
644.216	27990.62
644.979	27787.62
645.741	27632.62
646.503	27460.62
647.265	27387.62
648.027	27159.62
648.789	27074.62
649.551	26833.62
650.312	26365.62
651.074	25892.62
651.835	25520.62
652.597	25248.62
653.358	24963.62
654.12	24750.62
654.881	24588.62
655.642	24340.62
656.403	24279.62
657.164	24130.62
657.925	24063.62
658.686	24097.62
659.447	24015.62
660.207	24098.62
660.968	24191.62
661.728	24234.62
662.489	24343.62
663.249	24420.62
664.01	24506.62
664.77	24624.62
665.53	24701.62
666.29	24869.62
667.05	24963.62
667.81	25069.62
668.57	25110.62
669.329	25186.62
670.089	25276.62
670.849	25351.62
671.608	25404.62
672.368	25403.62
673.127	25420.62
673.886	25431.62
674.646	25343.62
675.405	25385.62
676.164	25205.62
676.923	25120.62
677.682	24986.62
678.44	24920.62
679.199	24796.62
679.958	24740.62
680.717	24817.62
681.475	25159.62
682.233	25886.62
682.992	26012.62
683.75	25451.62
684.508	24849.62
685.266	24222.62
686.024	23803.62
686.782	23437.62
687.54	23268.62
688.298	22958.62
689.056	22659.62
689.814	22207.62
690.571	21868.62
691.329	21441.62
692.086	20976.62
692.843	20637.62
693.601	20180.62
694.358	19822.62
695.115	19432.62
695.872	19106.62
696.629	18822.62
697.386	18552.62
698.143	18217.62
698.9	18052.62
699.656	17836.62
700.413	17658.62
701.169	17471.62
701.926	17469.62
702.682	17346.62
703.438	17191.62
704.195	17035.62
704.951	16930.62
705.707	16860.62
706.463	16822.62
707.219	16683.62
707.974	16667.62
708.73	16626.62
709.486	16574.62
710.241	16582.62
710.997	16452.62
711.752	16375.62
712.508	16136.62
713.263	15807.62
714.018	15360.62
714.773	15039.62
715.528	14555.62
716.283	14107.62
717.038	13592.62
717.793	13202.62
718.548	12739.62
719.303	12199.62
720.057	11653.62
720.812	11212.62
721.566	10828.62
722.321	10485.62
723.075	10199.62
723.829	9924.62
724.583	9705.62
725.337	9532.62
726.091	9372.62
726.845	9320.62
727.599	9190.62
728.353	9114.62
729.106	8935.62
729.86	8878.62
730.614	8890.62
731.367	8804.62
732.12	9078.62
732.874	8936.62
733.627	8665.62
734.38	8283.62
735.133	7815.62
735.886	7488.62
736.639	7235.62
737.392	7083.62
738.145	6959.62
738.897	6864.62
739.65	6798.62
740.403	6733.62
741.155	6533.62
741.907	6222.62
742.66	5835.62
743.412	5226.62
744.164	4545.62
744.916	3778.62
745.668	2848.62
746.42	1962.62
747.172	1190.62
747.924	627.62
748.676	353.62
749.427	235.62
750.179	181.62
750.93	156.62
751.682	143.62
752.433	135.62
753.184	139.62
753.935	129.62
754.687	112.62
755.438	119.62
756.189	120.62
756.939	107.62
757.69	101.62
758.441	112.62
759.192	102.62
759.942	93.62
760.693	100.62
761.443	103.62
762.194	101.62
762.944	86.62
763.694	105.62
764.444	97.62
765.194	104.62
765.944	86.62
766.694	90.62
767.444	83.62
768.194	88.62
768.943	67.62
769.693	79.62
770.443	74.62
771.192	80.62
771.941	76.62
772.691	72.62
773.44	72.62
774.189	71.62
774.938	59.62
775.687	69.62
776.436	57.62
777.185	61.62
777.934	72.62
778.683	64.62
779.431	63.62
780.18	77.62
780.928	57.62
781.677	66.62
782.425	66.62
783.173	72.62
783.922	68.62
784.67	56.62
785.418	64.62
786.166	76.62
786.914	63.62
787.661	58.62
788.409	65.62
789.157	76.62
789.904	53.62
790.652	62.62
791.399	47.62
792.147	66.62
792.894	60.62
793.641	37.62
794.388	171.62
795.136	58.62
795.883	54.62
796.629	41.62
797.376	54.62
798.123	49.62
798.87	63.62
799.616	52.62
800.363	55.62
801.109	48.62
801.856	55.62
802.602	39.62
803.349	45.62
804.095	47.62
804.841	53.62
805.587	53.62
806.333	51.62
807.079	59.62
807.825	46.62
808.57	42.62
809.316	52.62
810.062	43.62
810.807	41.62
811.553	34.62
812.298	43.62
813.043	55.62
813.788	44.62
814.534	39.62
815.279	40.62
816.024	43.62
816.769	44.62
817.514	27.62
818.258	50.62
819.003	37.62
819.748	368.62
820.492	37.62
821.237	100.62
821.981	44.62
822.726	40.62
823.47	25.62
824.214	23.62
824.958	49.62
825.702	44.62
826.446	42.62
827.19	33.62
827.934	37.62
828.678	41.62
829.421	30.62
830.165	41.62
830.909	40.62
831.652	25.62
832.395	44.62
833.139	38.62
833.882	53.62
834.625	25.62
835.368	34.62
836.111	41.62
836.854	30.62
837.597	39.62
838.34	40.62
839.083	39.62
839.825	42.62
840.568	42.62
841.311	22.62
842.053	36.62
842.795	34.62
843.538	29.62
844.28	31.62
845.022	27.62
845.764	20.62
846.506	20.62
847.248	31.62
847.99	24.62
848.732	38.62
849.474	19.62
850.215	24.62
850.957	38.62
851.698	44.62
852.44	30.62
853.181	47.62
853.922	30.62
854.664	31.62
855.405	37.62
856.146	41.62
856.887	41.62
857.628	35.62
858.369	25.62
859.109	24.62
859.85	36.62
860.591	30.62
861.331	44.62
862.072	28.62
862.812	36.62
863.553	27.62
864.293	40.62
865.033	34.62
865.773	34.62
866.513	24.62
867.253	32.62
867.993	28.62
868.733	37.62
869.473	18.62
870.213	35.62
870.952	32.62
871.692	26.62
872.431	40.62
873.171	31.62
873.91	22.62
874.649	24.62
875.388	43.62
876.128	34.62
876.867	31.62
877.606	38.62
878.345	29.62
879.083	26.62
879.822	29.62
880.561	36.62
881.299	35.62
882.038	32.62
882.777	25.62
883.515	25.62
884.253	-72.38
884.992	35.62
885.73	35.62
886.468	26.62
887.206	39.62
887.944	33.62
888.682	30.62
889.42	39.62
890.157	28.62
890.895	31.62
891.633	33.62
892.37	37.62
893.108	37.62
893.845	32.62
894.583	21.62
895.32	44.62
896.057	27.62
896.794	29.62
897.531	22.62
898.268	18.62
899.005	28.62
899.742	40.62
900.479	26.62
901.215	19.62
901.952	39.62
902.689	29.62
903.425	29.62
904.162	4.62
904.898	24.62
905.634	15.62
906.37	25.62
907.106	16.62
907.843	22.62
908.579	33.62
909.314	25.62
910.05	36.62
910.786	28.62
911.522	21.62
912.257	12.62
912.993	20.62
913.728	16.62
914.464	41.62
915.199	22.62
915.935	34.62
916.67	34.62
917.405	19.62
918.14	16.62
918.875	34.62
919.61	31.62
920.345	22.62
921.08	38.62
921.814	16.62
922.549	16.62
923.284	-24.38
924.018	25.62
924.752	26.62
925.487	31.62
926.221	30.62
926.955	11.62
927.69	18.62
928.424	27.62
929.158	33.62
929.892	13.62
930.625	20.62
931.359	29.62
932.093	29.62
932.827	24.62
933.56	25.62
934.294	18.62
935.027	26.62
935.761	33.62
936.494	35.62
937.227	24.62
937.96	22.62
938.693	33.62
939.426	14.62
940.159	28.62
940.892	10.62
941.625	18.62
942.358	17.62
943.091	30.62
943.823	24.62
944.556	21.62
945.288	27.62
946.021	26.62
946.753	28.62
947.485	32.62
948.217	24.62
948.95	34.62
949.682	5.62
950.414	18.62
951.146	31.62
951.877	20.62
952.609	35.62
953.341	9.62
954.073	27.62
954.804	25.62
955.536	35.62
956.267	14.62
956.998	15.62
957.73	17.62
958.461	22.62
959.192	21.62
959.923	29.62
960.654	33.62
961.385	21.62
962.116	12.62
962.847	22.62
963.578	21.62
964.308	30.62
965.039	29.62
965.769	20.62
966.5	22.62
967.23	26.62
967.961	18.62
968.691	40.62
969.421	17.62
970.151	22.62
970.881	34.62
971.611	32.62
972.341	23.62
973.071	11.62
973.801	25.62
974.53	28.62
975.26	27.62
975.99	15.62
976.719	22.62
977.448	28.62
978.178	23.62
978.907	26.62
979.636	27.62
980.365	25.62
981.095	13.62
981.824	23.62
982.553	18.62
983.281	19.62
984.01	-6.38
984.739	-1.38
985.468	5.62
986.196	-0.38
986.925	54.62
987.653	38.62
988.382	33.62
989.11	30.62
989.838	38.62
990.566	43.62
991.295	18.62
992.023	29.62
992.751	19.62
993.478	14.62
994.206	19.62
994.934	27.62
995.662	-0.38
996.389	2.62
997.117	-4.38
997.845	4.62
