Data from White_Bg_Subt2_010.txt Node
Date: Fri Aug 23 09:20:51 EDT 2019
User: wcc
Spectrometer: QEPB0759
Trigger mode: 0
Integration Time (sec): 1.000000E0
Scans to average: 1
Electric dark correction enabled: true
Nonlinearity correction enabled: true
Boxcar width: 0
XAxis mode: Wavelengths
Number of Pixels in Spectrum: 1044
>>>>>Begin Spectral Data<<<<<
197.938	-5
198.749	-20.37
199.559	-22.42
200.369	-20.38
201.179	-17.3
201.988	-13.2
202.798	-13.2
203.608	-34.73
204.417	-30.62
205.227	-3.97
206.036	-12.17
206.846	-32.67
207.655	-27.55
208.464	-25.5
209.273	-16.27
210.082	-29.6
210.891	-19.35
211.7	-15.25
212.508	-40.88
213.317	-6.02
214.125	-11.15
214.934	-26.53
215.742	-13.2
216.55	-14.22
217.359	-11.15
218.167	-14.22
218.975	-26.52
219.782	-16.27
220.59	-33.7
221.398	-24.48
222.206	-24.47
223.013	-8.07
223.82	-12.17
224.628	-15.25
225.435	-26.52
226.242	-32.67
227.049	-34.72
227.856	-13.2
228.663	-2.95
229.47	-7.05
230.277	-11.15
231.083	-31.65
231.89	-28.58
232.696	-32.67
233.502	-16.27
234.309	-33.7
235.115	-29.6
235.921	-19.35
236.727	-14.22
237.533	-31.65
238.339	-33.7
239.144	-19.35
239.95	-23.44
240.756	-18.32
241.561	-27.55
242.366	-35.75
243.172	-27.55
243.977	-16.27
244.782	-32.67
245.587	-7.05
246.392	-13.2
247.197	-7.05
248.001	-18.33
248.806	-10.12
249.611	-28.58
250.415	-17.3
251.219	-24.47
252.024	-10.12
252.828	-22.43
253.632	-19.35
254.436	3.2
255.24	-39.85
256.044	0.13
256.848	-25.5
257.651	-21.4
258.455	-29.6
259.258	-34.73
260.062	425.73
260.865	-25.5
261.668	-9.1
262.471	-24.47
263.274	-26.52
264.077	-19.35
264.88	-28.57
265.683	-15.25
266.486	-9.1
267.288	-18.32
268.091	1.15
268.893	-39.85
269.696	-11.15
270.498	-14.22
271.3	-44.98
272.102	-14.22
272.904	-29.6
273.706	4.23
274.508	-8.07
275.309	-38.82
276.111	-20.37
276.913	-8.07
277.714	-12.17
278.515	-29.6
279.317	-9.1
280.118	-12.17
280.919	-29.6
281.72	-21.4
282.521	-28.57
283.322	-13.2
284.122	-22.42
284.923	-32.67
285.724	-25.5
286.524	-22.42
287.325	-32.67
288.125	-36.78
288.925	-12.17
289.725	-44.97
290.525	-29.6
291.325	-13.2
292.125	-11.15
292.925	-26.52
293.724	-13.2
294.524	-30.63
295.324	-16.27
296.123	-33.7
296.922	-8.07
297.722	-9.09
298.521	-21.4
299.32	-11.15
300.119	-22.43
300.918	-30.62
301.716	-22.42
302.515	-25.5
303.314	-15.25
304.112	-17.3
304.911	-34.72
305.709	-12.17
306.507	-9.1
307.306	-32.67
308.104	-18.32
308.902	-5
309.7	-20.37
310.498	-28.57
311.295	-16.28
312.093	-16.27
312.891	-12.17
313.688	-29.6
314.485	-20.37
315.283	-6.02
316.08	-12.17
316.877	-26.52
317.674	-15.25
318.471	-31.65
319.268	-15.25
320.065	-12.17
320.862	-34.72
321.658	-15.25
322.455	7.3
323.251	-30.63
324.047	-22.43
324.844	-17.3
325.64	-13.2
326.436	-12.17
327.232	-19.35
328.028	-19.35
328.824	-8.07
329.62	-11.15
330.415	-27.54
331.211	-21.4
332.006	-19.35
332.802	-22.42
333.597	-13.2
334.392	-14.22
335.187	-17.3
335.982	-1.92
336.777	-11.15
337.572	-37.8
338.367	-26.52
339.162	-16.27
339.956	-20.37
340.751	-26.52
341.545	-17.3
342.34	-29.6
343.134	-18.32
343.928	-18.32
344.722	-17.3
345.516	-22.43
346.31	-34.73
347.104	-15.25
347.898	-17.3
348.691	-29.6
349.485	-6.02
350.278	-30.62
351.072	-22.42
351.865	-513.9
352.658	-18.32
353.452	-19.35
354.245	-16.27
355.038	-17.3
355.83	-22.42
356.623	-30.63
357.416	-34.73
358.209	-13.2
359.001	-16.27
359.794	-16.27
360.586	-26.52
361.378	-20.37
362.17	-21.4
362.963	-31.65
363.755	-20.37
364.546	-35.75
365.338	-18.32
366.13	-7.05
366.922	-27.55
367.713	-18.32
368.505	-29.6
369.296	-17.3
370.088	-17.3
370.879	-25.5
371.67	-26.52
372.461	-17.3
373.252	-10.12
374.043	-21.4
374.834	-25.5
375.625	-20.37
376.415	-25.5
377.206	-17.3
377.996	-31.65
378.787	-15.25
379.577	-31.65
380.367	-9.1
381.157	-18.32
381.947	-24.48
382.737	-8.07
383.527	-22.42
384.317	-11.15
385.107	-18.32
385.896	-19.35
386.686	-28.57
387.475	-18.32
388.265	-13.2
389.054	-32.66
389.843	-27.55
390.632	-18.32
391.421	-18.32
392.21	-29.6
392.999	-9.1
393.788	-16.27
394.576	-20.37
395.365	-31.65
396.154	-13.2
396.942	-24.48
397.73	-29.6
398.519	-16.27
399.307	-14.22
400.095	-47.02
400.883	-17.3
401.671	-25.5
402.459	-18.32
403.246	-28.58
404.034	-23.45
404.822	-17.3
405.609	-11.15
406.396	-23.45
407.184	-28.58
407.971	-20.37
408.758	-23.45
409.545	-17.3
410.332	-15.25
411.119	-19.35
411.906	-25.5
412.693	-37.8
413.479	-19.35
414.266	-19.35
415.052	-34.72
415.839	-22.42
416.625	-26.52
417.411	4.23
418.197	-13.2
418.983	-33.69
419.769	-11.15
420.555	-28.57
421.341	3.2
422.127	-23.45
422.912	-33.7
423.698	-35.75
424.483	-15.25
425.269	-46
426.054	-28.58
426.839	-21.4
427.624	-10.12
428.409	-21.4
429.194	-15.25
429.979	-7.05
430.764	-11.15
431.549	-23.45
432.333	-27.55
433.118	-19.35
433.902	-51.12
434.687	-59.33
435.471	-51.12
436.255	-40.87
437.039	-17.3
437.823	-48.05
438.607	-13.2
439.391	-40.87
440.175	-30.62
440.958	-27.55
441.742	-20.37
442.526	-32.68
443.309	-19.35
444.092	-40.87
444.876	-20.37
445.659	-14.22
446.442	-22.42
447.225	-17.3
448.008	-43.94
448.791	-32.67
449.573	13.45
450.356	-32.67
451.139	-25.5
451.921	-29.6
452.704	-7.05
453.486	-37.8
454.268	-38.82
455.05	-0.9
455.833	-22.42
456.615	-28.57
457.396	-18.32
458.178	-11.15
458.96	-20.38
459.742	-19.35
460.523	-30.62
461.305	-24.48
462.086	-18.32
462.868	-36.77
463.649	-8.07
464.43	-19.35
465.211	-21.39
465.992	-9.1
466.773	-13.2
467.554	-7.05
468.335	-11.15
469.115	-17.3
469.896	-20.38
470.676	-21.4
471.457	-11.15
472.237	-26.52
473.018	-18.32
473.798	-29.6
474.578	-17.3
475.358	-18.32
476.138	-14.22
476.918	-19.35
477.697	-19.35
478.477	-15.25
479.257	-5
480.036	-16.27
480.816	-26.53
481.595	-14.22
482.374	-33.7
483.153	-19.35
483.932	-22.42
484.711	-28.57
485.49	-42.92
486.269	-38.83
487.048	-58.31
487.827	-50.1
488.605	-39.85
489.384	-44.98
490.162	-30.62
490.941	-40.87
491.719	-19.35
492.497	-41.9
493.275	-29.6
494.053	-17.3
494.831	-27.55
495.609	-13.2
496.387	-15.25
497.164	-43.95
497.942	-15.25
498.72	-17.3
499.497	-20.37
500.274	-24.48
501.052	-14.22
501.829	-12.17
502.606	-19.35
503.383	-28.57
504.16	-0.9
504.937	-21.4
505.714	-21.4
506.49	2.18
507.267	-24.48
508.043	-30.62
508.82	-30.62
509.596	0.13
510.373	-26.52
511.149	-15.25
511.925	-34.73
512.701	1.15
513.477	-14.22
514.253	-15.25
515.029	-22.42
515.804	-15.25
516.58	-18.32
517.356	3.2
518.131	-2.95
518.906	4.23
519.682	11.4
520.457	-12.17
521.232	3.2
522.007	-12.17
522.782	-0.9
523.557	-9.1
524.332	-18.32
525.107	-1.92
525.881	-5
526.656	-12.17
527.43	-13.2
528.205	-28.57
528.979	-6.02
529.753	-0.9
530.527	2.18
531.302	-3.97
532.076	-22.42
532.849	-0.9
533.623	-11.15
534.397	-20.37
535.171	-7.05
535.944	-10.12
536.718	-41.9
537.491	2.18
538.265	-13.2
539.038	-26.52
539.811	-13.2
540.584	-37.8
541.357	-61.38
542.13	-51.11
542.903	-52.14
543.676	-58.3
544.449	-35.75
545.221	-67.52
545.994	-26.52
546.766	-31.65
547.539	-31.65
548.311	-54.2
549.083	-20.37
549.855	-6.02
550.627	-22.42
551.399	-25.5
552.171	-30.62
552.943	-15.25
553.715	-0.9
554.486	1.15
555.258	3.2
556.029	-3.97
556.801	9.35
557.572	-0.9
558.343	1.15
559.114	-18.32
559.886	-0.9
560.657	2.18
561.427	-5
562.198	0.13
562.969	-1.92
563.74	1.15
564.51	4.23
565.281	-11.15
566.051	8.33
566.822	2.18
567.592	11.4
568.362	1.15
569.132	-11.15
569.902	-5
570.672	2.18
571.442	-12.17
572.212	-5
572.982	14.48
573.751	-8.07
574.521	-9.1
575.29	11.4
576.06	-8.07
576.829	-9.1
577.598	-21.4
578.367	-18.32
579.136	0.13
579.905	-22.42
580.674	-17.3
581.443	-22.42
582.212	-18.32
582.981	-18.32
583.749	-13.2
584.518	-20.37
585.286	-9.1
586.054	-35.74
586.823	-29.6
587.591	-17.3
588.359	-29.59
589.127	-17.3
589.895	-2.95
590.663	-35.74
591.431	-17.3
592.198	-28.57
592.966	-17.3
593.734	-11.15
594.501	-7.05
595.268	0.13
596.036	-16.27
596.803	-7.05
597.57	-9.1
598.337	-0.9
599.104	-20.37
599.871	-2.95
600.638	-11.15
601.405	-7.05
602.171	-5
602.938	-34.72
603.704	-5
604.471	-15.25
605.237	-1.92
606.004	-33.7
606.77	-23.45
607.536	-22.42
608.302	-36.77
609.068	-64.44
609.834	-50.1
610.599	-104.41
611.365	-67.52
612.131	-62.4
612.896	-27.55
613.662	-44.97
614.427	-29.6
615.193	-36.77
615.958	-26.52
616.723	-19.35
617.488	-3.97
618.253	-9.1
619.018	-28.57
619.783	-31.65
620.548	-23.44
621.312	-29.6
622.077	-15.25
622.842	-27.55
623.606	-24.47
624.37	-28.57
625.135	-13.2
625.899	-19.35
626.663	-36.77
627.427	-17.3
628.191	-17.3
628.955	-58.29
629.719	-20.37
630.483	-35.75
631.246	-29.6
632.01	-25.5
632.773	-13.2
633.537	-5
634.3	-13.2
635.063	-1.92
635.827	-9.1
636.59	-15.25
637.353	-20.37
638.116	-10.12
638.879	-8.07
639.641	-1.92
640.404	-3.97
641.167	-8.07
641.929	-8.07
642.692	1.15
643.454	-18.32
644.216	-10.12
644.979	-32.67
645.741	-19.35
646.503	-15.25
647.265	-21.4
648.027	-22.42
648.789	-12.17
649.551	-14.22
650.312	-16.27
651.074	-12.17
651.835	-17.3
652.597	-14.22
653.358	-17.3
654.12	10.38
654.881	-6.02
655.642	-13.2
656.403	-14.22
657.164	-15.25
657.925	-3.97
658.686	-19.35
659.447	-15.25
660.207	-2.95
660.968	-11.15
661.728	-10.12
662.489	-8.07
663.249	-24.47
664.01	-7.05
664.77	-7.05
665.53	9.35
666.29	-15.25
667.05	-13.2
667.81	6.28
668.57	-7.05
669.329	-14.22
670.089	-9.1
670.849	-3.97
671.608	-2.95
672.368	9.35
673.127	6.28
673.886	3.2
674.646	-0.9
675.405	-6.02
676.164	-3.97
676.923	-12.17
677.682	-2.95
678.44	0.13
679.199	14.48
679.958	-32.66
680.717	16.53
681.475	9.35
682.233	13.45
682.992	-9.1
683.75	-6.02
684.508	-10.12
685.266	-6.02
686.024	-5
686.782	-2.95
687.54	8.33
688.298	-11.15
689.056	-8.07
689.814	-12.17
690.571	-10.12
691.329	-6.02
692.086	-18.32
692.843	9.35
693.601	13.45
694.358	-0.9
695.115	7.3
695.872	3.2
696.629	-3.97
697.386	0.13
698.143	14.48
698.9	-6.02
699.656	-9.1
700.413	-3.97
701.169	-11.15
701.926	-6.02
702.682	4.23
703.438	3.2
704.195	-16.27
704.951	-9.1
705.707	-28.58
706.463	-14.22
707.219	-3.97
707.974	-31.65
708.73	-38.83
709.486	-21.4
710.241	-21.4
710.997	-9.1
711.752	-28.57
712.508	-10.12
713.263	-15.25
714.018	5.25
714.773	-12.17
715.528	-9.1
716.283	-9.1
717.038	-12.17
717.793	-18.32
718.548	-20.37
719.303	0.13
720.057	-7.05
720.812	-14.22
721.566	-20.38
722.321	-30.62
723.075	-11.15
723.829	-13.2
724.583	-16.27
725.337	-21.4
726.091	-16.27
726.845	-12.17
727.599	-18.33
728.353	-21.4
729.106	-28.58
729.86	-29.6
730.614	-25.5
731.367	-282.53
732.12	-15.25
732.874	-11.15
733.627	-9.1
734.38	-16.27
735.133	-13.2
735.886	-29.6
736.639	-20.37
737.392	-13.2
738.145	-9.1
738.897	-17.3
739.65	-20.37
740.403	-22.42
741.155	-22.42
741.907	-11.15
742.66	-25.49
743.412	-8.07
744.164	-10.12
744.916	-13.2
745.668	-32.67
746.42	-29.59
747.172	-17.3
747.924	-28.57
748.676	-17.3
749.427	-10.12
750.179	-10.12
750.93	-5
751.682	-11.15
752.433	-14.22
753.184	-27.54
753.935	-17.3
754.687	-20.38
755.438	-22.42
756.189	-15.25
756.939	-19.35
757.69	-14.22
758.441	-13.2
759.192	-12.17
759.942	-8.07
760.693	-23.45
761.443	-17.3
762.194	-17.3
762.944	-14.22
763.694	-27.55
764.444	-8.07
765.194	-6.02
765.944	-34.72
766.694	-13.2
767.444	-11.15
768.194	-10.12
768.943	-24.48
769.693	-24.47
770.443	-23.45
771.192	-41.9
771.941	-17.3
772.691	-47.02
773.44	-27.55
774.189	-20.37
774.938	-28.57
775.687	-25.5
776.436	-35.75
777.185	-14.22
777.934	-25.5
778.683	-10.12
779.431	-19.35
780.18	-21.4
780.928	-17.3
781.677	-32.67
782.425	-23.45
783.173	-27.55
783.922	-40.87
784.67	-14.22
785.418	-42.92
786.166	-15.25
786.914	-6.02
787.661	-12.17
788.409	-37.8
789.157	-14.22
789.904	-20.37
790.652	-11.15
791.399	-21.4
792.147	-18.32
792.894	-13.2
793.641	-25.5
794.388	-189.13
795.136	-7.05
795.883	-2.95
796.629	-11.15
797.376	-31.65
798.123	-8.07
798.87	-21.4
799.616	-35.75
800.363	-26.52
801.109	-33.69
801.856	-12.17
802.602	-24.48
803.349	-14.22
804.095	-21.39
804.841	-29.6
805.587	-21.4
806.333	-24.47
807.079	-19.35
807.825	-13.2
808.57	-24.47
809.316	-18.32
810.062	-33.7
810.807	-26.52
811.553	-9.1
812.298	-14.22
813.043	-12.17
813.788	-20.37
814.534	-13.2
815.279	-20.37
816.024	-27.55
816.769	-10.12
817.514	-24.47
818.258	-29.6
819.003	-12.17
819.748	-263.73
820.492	-14.22
821.237	-93.56
821.981	-13.2
822.726	-34.72
823.47	-40.87
824.214	-25.5
824.958	-50.1
825.702	-44.97
826.446	-29.6
827.19	-18.32
827.934	-32.67
828.678	-11.15
829.421	-19.34
830.165	-32.67
830.909	-23.45
831.652	-24.47
832.395	-23.45
833.139	-19.35
833.882	-23.44
834.625	-26.52
835.368	-28.57
836.111	-19.35
836.854	-44.97
837.597	-12.17
838.34	-30.62
839.083	-13.2
839.825	-22.42
840.568	-9.1
841.311	-25.5
842.053	-18.32
842.795	-11.15
843.538	-23.45
844.28	-27.55
845.022	-27.55
845.764	-17.29
846.506	-18.33
847.248	-38.82
847.99	-26.52
848.732	-20.37
849.474	-32.67
850.215	-26.53
850.957	-33.7
851.698	-28.58
852.44	-19.35
853.181	-13.2
853.922	-14.22
854.664	-14.22
855.405	-17.3
856.146	-34.73
856.887	-24.47
857.628	-13.2
858.369	-11.15
859.109	-35.74
859.85	-22.42
860.591	-20.37
861.331	-23.45
862.072	-17.3
862.812	-25.5
863.553	-13.2
864.293	-17.3
865.033	-26.52
865.773	0.13
866.513	-16.28
867.253	-15.25
867.993	-20.37
868.733	-21.4
869.473	-25.5
870.213	-30.62
870.952	-25.5
871.692	-15.25
872.431	-7.05
873.171	-13.2
873.91	-10.12
874.649	-20.38
875.388	-20.37
876.128	-19.35
876.867	-33.7
877.606	-19.35
878.345	-23.45
879.083	-16.27
879.822	-31.65
880.561	-41.9
881.299	-24.47
882.038	-24.47
882.777	-3.97
883.515	-20.37
884.253	-25.2
884.992	-20.37
885.73	-18.32
886.468	-0.9
887.206	-13.2
887.944	-24.47
888.682	-28.57
889.42	-27.55
890.157	-17.3
890.895	-24.48
891.633	-36.74
892.37	-25.5
893.108	-22.42
893.845	-18.32
894.583	-23.45
895.32	-14.22
896.057	-21.4
896.794	-9.1
897.531	-35.75
898.268	-21.4
899.005	-22.43
899.742	-25.5
900.479	-27.55
901.215	-23.45
901.952	-22.42
902.689	-19.35
903.425	-14.23
904.162	-2.95
904.898	-20.37
905.634	-15.25
906.37	-12.17
907.106	-15.25
907.843	-6.02
908.579	-18.32
909.314	-18.33
910.05	-19.35
910.786	-29.6
911.522	-31.65
912.257	-48.05
912.993	-18.32
913.728	-15.25
914.464	-35.75
915.199	-23.45
915.935	-30.63
916.67	-29.6
917.405	-28.57
918.14	-24.47
918.875	-15.25
919.61	-21.4
920.345	-42.92
921.08	-25.49
921.814	-15.25
922.549	-14.22
923.284	-13.2
924.018	-22.43
924.752	-39.85
925.487	-15.25
926.221	-18.32
926.955	-18.32
927.69	-22.43
928.424	-16.27
929.158	-31.65
929.892	-36.78
930.625	-18.32
931.359	-21.4
932.093	-9.1
932.827	-22.43
933.56	-25.5
934.294	-17.3
935.027	-5
935.761	-27.55
936.494	-21.4
937.227	-33.7
937.96	-27.55
938.693	-33.7
939.426	-20.38
940.159	-49.07
940.892	-13.2
941.625	-44.97
942.358	-19.35
943.091	-29.6
943.823	-26.53
944.556	-24.48
945.288	-15.25
946.021	-15.25
946.753	-28.58
947.485	-36.77
948.217	-13.2
948.95	-33.7
949.682	-16.28
950.414	-24.48
951.146	-26.52
951.877	-16.27
952.609	12.43
953.341	-12.17
954.073	-27.55
954.804	-14.22
955.536	-14.22
956.267	-12.17
956.998	-5
957.73	-33.7
958.461	-38.83
959.192	8.33
959.923	-22.42
960.654	-12.17
961.385	-0.9
962.116	-8.07
962.847	-16.27
963.578	-22.42
964.308	-25.5
965.039	-21.4
965.769	-22.42
966.5	-12.17
967.23	-16.27
967.961	-10.12
968.691	-22.42
969.421	-26.53
970.151	-33.7
970.881	-42.93
971.611	-35.75
972.341	-33.7
973.071	-37.8
973.801	3.2
974.53	-13.2
975.26	-36.78
975.99	-30.62
976.719	-34.72
977.448	-7.05
978.178	-25.5
978.907	-8.07
979.636	-17.3
980.365	-12.17
981.095	-3.97
981.824	-30.62
982.553	-26.52
983.281	-24.48
984.01	-0.9
984.739	8.34
985.468	-3.98
986.196	-1.92
986.925	-13.19
987.653	-28.57
988.382	-23.45
989.11	-32.67
989.838	-20.37
990.566	-11.15
991.295	-17.3
992.023	-27.55
992.751	-5
993.478	-12.17
994.206	-12.17
994.934	-29.6
995.662	-1.92
996.389	2.18
997.117	-6.03
997.845	4.23
