Data from White_Subt2_009.txt Node
Date: Tue Aug 27 12:40:08 EDT 2019
User: wcc
Spectrometer: QEPB0759
Trigger mode: 0
Integration Time (sec): 1.000000E0
Scans to average: 1
Electric dark correction enabled: true
Nonlinearity correction enabled: false
Boxcar width: 0
XAxis mode: Wavelengths
Number of Pixels in Spectrum: 1044
>>>>>Begin Spectral Data<<<<<
197.938	35
198.749	41
199.559	36
200.369	34
201.179	29
201.988	41
202.798	48
203.608	25
204.417	34
205.227	36
206.036	32
206.846	38
207.655	37
208.464	29
209.273	35
210.082	42
210.891	25
211.7	31
212.508	42
213.317	33
214.125	36
214.934	39
215.742	31
216.55	51
217.359	47
218.167	45
218.975	43
219.782	39
220.59	35
221.398	41
222.206	45
223.013	50
223.82	47
224.628	43
225.435	49
226.242	40
227.049	18
227.856	35
228.663	48
229.47	41
230.277	43
231.083	38
231.89	30
232.696	49
233.502	49
234.309	50
235.115	40
235.921	37
236.727	40
237.533	34
238.339	34
239.144	49
239.95	34
240.756	38
241.561	39
242.366	48
243.172	48
243.977	33
244.782	42
245.587	45
246.392	43
247.197	21
248.001	46
248.806	48
249.611	36
250.415	36
251.219	35
252.024	45
252.828	37
253.632	36
254.436	42
255.24	49
256.044	40
256.848	37
257.651	36
258.455	45
259.258	42
260.062	-2004
260.865	41
261.668	43
262.471	30
263.274	34
264.077	29
264.88	27
265.683	41
266.486	36
267.288	30
268.091	41
268.893	51
269.696	54
270.498	44
271.3	38
272.102	39
272.904	41
273.706	35
274.508	35
275.309	62
276.111	59
276.913	34
277.714	40
278.515	41
279.317	56
280.118	46
280.919	43
281.72	38
282.521	45
283.322	41
284.122	35
284.923	38
285.724	44
286.524	49
287.325	42
288.125	35
288.925	47
289.725	25
290.525	33
291.325	32
292.125	30
292.925	37
293.724	44
294.524	40
295.324	40
296.123	52
296.922	48
297.722	51
298.521	47
299.32	45
300.119	43
300.918	49
301.716	50
302.515	41
303.314	56
304.112	45
304.911	38
305.709	49
306.507	47
307.306	36
308.104	47
308.902	40
309.7	45
310.498	45
311.295	46
312.093	44
312.891	39
313.688	50
314.485	43
315.283	38
316.08	47
316.877	59
317.674	33
318.471	54
319.268	43
320.065	28
320.862	47
321.658	46
322.455	39
323.251	45
324.047	52
324.844	42
325.64	36
326.436	50
327.232	47
328.028	39
328.824	44
329.62	40
330.415	44
331.211	39
332.006	50
332.802	50
333.597	52
334.392	45
335.187	46
335.982	44
336.777	43
337.572	46
338.367	41
339.162	34
339.956	41
340.751	45
341.545	50
342.34	35
343.134	43
343.928	47
344.722	46
345.516	43
346.31	44
347.104	44
347.898	53
348.691	33
349.485	54
350.278	44
351.072	58
351.865	224
352.658	48
353.452	42
354.245	46
355.038	36
355.83	41
356.623	50
357.416	51
358.209	47
359.001	54
359.794	42
360.586	60
361.378	48
362.17	28
362.963	48
363.755	44
364.546	48
365.338	43
366.13	52
366.922	54
367.713	54
368.505	51
369.296	51
370.088	53
370.879	59
371.67	45
372.461	62
373.252	62
374.043	67
374.834	72
375.625	91
376.415	82
377.206	97
377.996	120
378.787	134
379.577	144
380.367	173
381.157	196
381.947	244
382.737	266
383.527	307
384.317	370
385.107	434
385.896	491
386.686	555
387.475	650
388.265	743
389.054	863
389.843	937
390.632	1054
391.421	1166
392.21	1299
392.999	1425
393.788	1589
394.576	1748
395.365	1910
396.154	2085
396.942	2233
397.73	2423
398.519	2618
399.307	2747
400.095	2920
400.883	3075
401.671	3276
402.459	3465
403.246	3647
404.034	3837
404.822	4035
405.609	4171
406.396	4299
407.184	4418
407.971	4514
408.758	4630
409.545	4704
410.332	4811
411.119	4975
411.906	5109
412.693	5339
413.479	5544
414.266	5810
415.052	6145
415.839	6482
416.625	6797
417.411	7130
418.197	7443
418.983	7694
419.769	7727
420.555	7656
421.341	7555
422.127	7439
422.912	7402
423.698	7359
424.483	7401
425.269	7516
426.054	7664
426.839	7885
427.624	8093
428.409	8441
429.194	8680
429.979	9086
430.764	9348
431.549	9695
432.333	9937
433.118	10092
433.902	10277
434.687	10405
435.471	10494
436.255	10630
437.039	10863
437.823	10999
438.607	11070
439.391	11080
440.175	11146
440.958	11241
441.742	11376
442.526	11540
443.309	11718
444.092	11942
444.876	12133
445.659	12278
446.442	12547
447.225	12767
448.008	13382
448.791	14645
449.573	15743
450.356	15777
451.139	15621
451.921	15747
452.704	15632
453.486	15539
454.268	15880
455.05	16299
455.833	16812
456.615	17428
457.396	17964
458.178	18114
458.96	18103
459.742	18215
460.523	18562
461.305	19211
462.086	19769
462.868	19984
463.649	19834
464.43	19703
465.211	20031
465.992	21203
466.773	22947
467.554	24114
468.335	24154
469.115	23495
469.896	22782
470.676	22328
471.457	22530
472.237	24297
473.018	25177
473.798	23751
474.578	21991
475.358	21500
476.138	21308
476.918	21311
477.697	21522
478.477	22038
479.257	22756
480.036	24137
480.816	25146
481.595	25594
482.374	25624
483.153	25631
483.932	25308
484.711	25003
485.49	24891
486.269	25060
487.048	25375
487.827	25801
488.605	26302
489.384	27004
490.162	28113
490.941	30011
491.719	31553
492.497	31720
493.275	31204
494.053	30647
494.831	30236
495.609	30071
496.387	29984
497.164	30092
497.942	30179
498.72	30365
499.497	30540
500.274	30801
501.052	31016
501.829	31273
502.606	31699
503.383	31910
504.16	32065
504.937	32177
505.714	32422
506.49	32636
507.267	32757
508.043	33041
508.82	33271
509.596	33591
510.373	33935
511.149	34233
511.925	34769
512.701	35086
513.477	35535
514.253	35660
515.029	35976
515.804	36281
516.58	36662
517.356	36989
518.131	37426
518.906	37604
519.682	37869
520.457	38289
521.232	38504
522.007	38833
522.782	39027
523.557	39103
524.332	39135
525.107	39431
525.881	39446
526.656	39565
527.43	39679
528.205	39794
528.979	39740
529.753	39547
530.527	39419
531.302	39328
532.076	39304
532.849	39168
533.623	38991
534.397	38781
535.171	38604
535.944	38369
536.718	38179
537.491	38042
538.265	37965
539.038	37945
539.811	37879
540.584	37937
541.357	38003
542.13	37965
542.903	37823
543.676	37796
544.449	37841
545.221	37788
545.994	37781
546.766	37799
547.539	37816
548.311	37894
549.083	37968
549.855	38030
550.627	38154
551.399	38369
552.171	38671
552.943	38991
553.715	39108
554.486	39394
555.258	39660
556.029	39945
556.801	40154
557.572	40521
558.343	40776
559.114	41022
559.886	41326
560.657	41681
561.427	41997
562.198	42190
562.969	42368
563.74	42560
564.51	42682
565.281	42850
566.051	42976
566.822	43084
567.592	43020
568.362	42924
569.132	42827
569.902	42658
570.672	42433
571.442	42303
572.212	42059
572.982	41942
573.751	41671
574.521	41590
575.29	41465
576.06	41275
576.829	41089
577.598	40908
578.367	40754
579.136	40819
579.905	40727
580.674	40652
581.443	40754
582.212	40707
582.981	40691
583.749	40716
584.518	40806
585.286	40917
586.054	40957
586.823	41041
587.591	40919
588.359	40937
589.127	41001
589.895	41021
590.663	41039
591.431	41060
592.198	40990
592.966	40964
593.734	40954
594.501	40744
595.268	40628
596.036	40471
596.803	40409
597.57	40108
598.337	39972
599.104	39710
599.871	39495
600.638	39199
601.405	39023
602.171	38872
602.938	38722
603.704	38471
604.471	38336
605.237	38138
606.004	37961
606.77	37827
607.536	37736
608.302	37658
609.068	37641
609.834	37663
610.599	37692
611.365	37714
612.131	37700
612.896	37744
613.662	37724
614.427	37704
615.193	37764
615.958	37596
616.723	37608
617.488	37564
618.253	37397
619.018	37391
619.783	37209
620.548	37066
621.312	36921
622.077	36815
622.842	36646
623.606	36443
624.37	36207
625.135	36055
625.899	35727
626.663	35513
627.427	35070
628.191	34801
628.955	34562
629.719	34298
630.483	34056
631.246	33719
632.01	33295
632.773	32983
633.537	32557
634.3	32242
635.063	31822
635.827	31462
636.59	31160
637.353	30771
638.116	30345
638.879	30050
639.641	29703
640.404	29410
641.167	29038
641.929	28695
642.692	28460
643.454	28222
644.216	27961
644.979	27805
645.741	27550
646.503	27407
647.265	27326
648.027	27179
648.789	26952
649.551	26777
650.312	26360
651.074	25874
651.835	25516
652.597	25226
653.358	24978
654.12	24727
654.881	24492
655.642	24375
656.403	24239
657.164	24162
657.925	24152
658.686	24103
659.447	24051
660.207	24181
660.968	24209
661.728	24211
662.489	24390
663.249	24441
664.01	24508
664.77	24637
665.53	24780
666.29	24845
667.05	24982
667.81	24983
668.57	25111
669.329	25181
670.089	25293
670.849	25308
671.608	25465
672.368	25519
673.127	25397
673.886	25423
674.646	25362
675.405	25283
676.164	25267
676.923	25142
677.682	24940
678.44	24854
679.199	24784
679.958	24756
680.717	24824
681.475	25184
682.233	25829
682.992	25963
683.75	25419
684.508	24849
685.266	24277
686.024	23763
686.782	23451
687.54	23289
688.298	22965
689.056	22618
689.814	22334
690.571	21790
691.329	21405
692.086	21013
692.843	20565
693.601	20281
694.358	19846
695.115	19390
695.872	19065
696.629	18819
697.386	18512
698.143	18264
698.9	18082
699.656	17860
700.413	17761
701.169	17600
701.926	17484
702.682	17321
703.438	17249
704.195	17060
704.951	16951
705.707	16850
706.463	16780
707.219	16674
707.974	16672
708.73	16647
709.486	16634
710.241	16517
710.997	16415
711.752	16352
712.508	16154
713.263	15782
714.018	15456
714.773	15040
715.528	14613
716.283	14097
717.038	13671
717.793	13229
718.548	12711
719.303	12199
720.057	11701
720.812	11184
721.566	10845
722.321	10495
723.075	10217
723.829	9923
724.583	9673
725.337	9537
726.091	9366
726.845	9291
727.599	9231
728.353	9105
729.106	8959
729.86	8880
730.614	8893
731.367	8948
732.12	9072
732.874	8954
733.627	8652
734.38	8232
735.133	7861
735.886	7469
736.639	7242
737.392	7087
738.145	6957
738.897	6897
739.65	6810
740.403	6745
741.155	6574
741.907	6255
742.66	5819
743.412	5227
744.164	4567
744.916	3779
745.668	2851
746.42	1967
747.172	1209
747.924	644
748.676	347
749.427	244
750.179	187
750.93	164
751.682	134
752.433	125
753.184	125
753.935	136
754.687	112
755.438	123
756.189	101
756.939	109
757.69	114
758.441	103
759.192	92
759.942	91
760.693	108
761.443	114
762.194	101
762.944	99
763.694	102
764.444	98
765.194	102
765.944	86
766.694	97
767.444	91
768.194	78
768.943	71
769.693	76
770.443	78
771.192	91
771.941	70
772.691	79
773.44	79
774.189	71
774.938	73
775.687	69
776.436	68
777.185	68
777.934	71
778.683	66
779.431	71
780.18	66
780.928	62
781.677	68
782.425	75
783.173	74
783.922	67
784.67	56
785.418	73
786.166	80
786.914	73
787.661	61
788.409	67
789.157	80
789.904	56
790.652	54
791.399	55
792.147	70
792.894	62
793.641	53
794.388	269
795.136	52
795.883	59
796.629	56
797.376	45
798.123	49
798.87	58
799.616	40
800.363	65
801.109	50
801.856	54
802.602	46
803.349	54
804.095	52
804.841	49
805.587	47
806.333	52
807.079	48
807.825	48
808.57	30
809.316	50
810.062	45
810.807	41
811.553	43
812.298	58
813.043	52
813.788	49
814.534	24
815.279	49
816.024	40
816.769	46
817.514	39
818.258	55
819.003	54
819.748	252
820.492	52
821.237	113
821.981	37
822.726	38
823.47	31
824.214	34
824.958	52
825.702	42
826.446	32
827.19	26
827.934	31
828.678	34
829.421	26
830.165	33
830.909	50
831.652	33
832.395	47
833.139	37
833.882	51
834.625	24
835.368	34
836.111	37
836.854	31
837.597	31
838.34	41
839.083	38
839.825	27
840.568	41
841.311	34
842.053	37
842.795	35
843.538	35
844.28	33
845.022	28
845.764	33
846.506	18
847.248	35
847.99	34
848.732	33
849.474	32
850.215	36
850.957	31
851.698	40
852.44	38
853.181	36
853.922	31
854.664	32
855.405	40
856.146	44
856.887	32
857.628	34
858.369	14
859.109	36
859.85	39
860.591	32
861.331	43
862.072	43
862.812	22
863.553	35
864.293	41
865.033	30
865.773	35
866.513	26
867.253	35
867.993	35
868.733	30
869.473	27
870.213	34
870.952	21
871.692	30
872.431	41
873.171	27
873.91	38
874.649	24
875.388	36
876.128	33
876.867	27
877.606	41
878.345	39
879.083	38
879.822	30
880.561	38
881.299	37
882.038	34
882.777	29
883.515	34
884.253	-45
884.992	33
885.73	19
886.468	30
887.206	30
887.944	38
888.682	35
889.42	32
890.157	25
890.895	24
891.633	33
892.37	30
893.108	39
893.845	29
894.583	23
895.32	36
896.057	23
896.794	40
897.531	28
898.268	24
899.005	28
899.742	37
900.479	18
901.215	12
901.952	30
902.689	32
903.425	21
904.162	20
904.898	31
905.634	15
906.37	25
907.106	18
907.843	15
908.579	20
909.314	23
910.05	28
910.786	32
911.522	22
912.257	26
912.993	23
913.728	21
914.464	30
915.199	25
915.935	34
916.67	32
917.405	7
918.14	28
918.875	39
919.61	40
920.345	29
921.08	33
921.814	21
922.549	23
923.284	-17
924.018	20
924.752	27
925.487	27
926.221	27
926.955	22
927.69	13
928.424	23
929.158	32
929.892	11
930.625	23
931.359	32
932.093	19
932.827	30
933.56	30
934.294	21
935.027	27
935.761	37
936.494	25
937.227	27
937.96	30
938.693	29
939.426	25
940.159	17
940.892	22
941.625	14
942.358	22
943.091	34
943.823	25
944.556	18
945.288	21
946.021	22
946.753	29
947.485	31
948.217	31
948.95	36
949.682	11
950.414	23
951.146	32
951.877	21
952.609	24
953.341	15
954.073	29
954.804	21
955.536	31
956.267	21
956.998	20
957.73	12
958.461	20
959.192	31
959.923	25
960.654	39
961.385	24
962.116	18
962.847	31
963.578	22
964.308	27
965.039	17
965.769	20
966.5	24
967.23	17
967.961	23
968.691	30
969.421	22
970.151	22
970.881	30
971.611	24
972.341	19
973.071	10
973.801	25
974.53	34
975.26	24
975.99	28
976.719	19
977.448	36
978.178	23
978.907	30
979.636	29
980.365	13
981.095	26
981.824	18
982.553	27
983.281	12
984.01	3
984.739	-3
985.468	1
986.196	-4
986.925	42
987.653	41
988.382	28
989.11	19
989.838	32
990.566	31
991.295	16
992.023	23
992.751	23
993.478	22
994.206	27
994.934	16
995.662	-6
996.389	4
997.117	-1
997.845	6
