Data from White_Bg_Subt2_002.txt Node
Date: Fri Aug 23 09:20:44 EDT 2019
User: wcc
Spectrometer: QEPB0759
Trigger mode: 0
Integration Time (sec): 1.000000E0
Scans to average: 1
Electric dark correction enabled: true
Nonlinearity correction enabled: true
Boxcar width: 0
XAxis mode: Wavelengths
Number of Pixels in Spectrum: 1044
>>>>>Begin Spectral Data<<<<<
197.938	-19.48
198.749	-13.33
199.559	-20.5
200.369	-10.25
201.179	-8.2
201.988	-15.38
202.798	-9.22
203.608	-30.75
204.417	-19.48
205.227	-10.25
206.036	-4.1
206.846	-27.68
207.655	-29.72
208.464	-20.5
209.273	-21.52
210.082	-16.4
210.891	-21.53
211.7	-7.18
212.508	-26.65
213.317	-10.25
214.125	-16.4
214.934	3.08
215.742	-22.55
216.55	-8.2
217.359	-22.55
218.167	-12.3
218.975	-38.95
219.782	-23.58
220.59	-30.75
221.398	-16.4
222.206	-22.55
223.013	-14.35
223.82	-30.76
224.628	-18.45
225.435	-21.53
226.242	-24.6
227.049	-29.73
227.856	-11.28
228.663	-25.63
229.47	-12.3
230.277	-7.18
231.083	-13.33
231.89	-25.63
232.696	-34.85
233.502	-16.4
234.309	-18.45
235.115	-15.38
235.921	-24.6
236.727	-19.48
237.533	-21.52
238.339	-33.83
239.144	-31.78
239.95	-21.52
240.756	-12.3
241.561	-26.65
242.366	-25.63
243.172	-21.53
243.977	-15.37
244.782	-27.68
245.587	-12.3
246.392	-14.35
247.197	-16.4
248.001	-20.5
248.806	-17.43
249.611	-20.5
250.415	-13.33
251.219	-9.23
252.024	-10.25
252.828	-11.28
253.632	-15.38
254.436	-1.03
255.24	-27.68
256.044	-8.2
256.848	-11.28
257.651	-20.5
258.455	-29.73
259.258	-19.48
260.062	273.08
260.865	-33.83
261.668	-1.03
262.471	-32.8
263.274	-19.48
264.077	-8.2
264.88	-30.75
265.683	-15.38
266.486	-8.2
267.288	-4.1
268.091	-9.23
268.893	-51.25
269.696	-14.35
270.498	-24.6
271.3	-20.5
272.102	-4.1
272.904	-36.9
273.706	-7.18
274.508	-6.15
275.309	-35.88
276.111	-14.35
276.913	5.13
277.714	-16.4
278.515	-30.75
279.317	-8.2
280.118	-17.43
280.919	-18.45
281.72	-30.75
282.521	-41
283.322	-11.28
284.122	-8.2
284.923	-19.48
285.724	-17.43
286.524	-17.43
287.325	-25.62
288.125	-49.21
288.925	-23.58
289.725	-31.78
290.525	-22.55
291.325	-15.38
292.125	-7.18
292.925	-27.68
293.724	-14.35
294.524	-19.48
295.324	-9.23
296.123	-38.95
296.922	-18.45
297.722	-1.02
298.521	-20.5
299.32	-14.35
300.119	-25.63
300.918	-24.6
301.716	-22.55
302.515	-26.65
303.314	-17.42
304.112	-20.5
304.911	-11.27
305.709	-18.45
306.507	-9.23
307.306	-25.63
308.104	-15.38
308.902	-12.3
309.7	-13.33
310.498	-27.67
311.295	-14.35
312.093	-14.35
312.891	-39.97
313.688	-24.6
314.485	-27.68
315.283	-12.3
316.08	-8.2
316.877	-18.45
317.674	-14.35
318.471	-45.11
319.268	-18.45
320.065	-11.28
320.862	-30.75
321.658	-7.18
322.455	-8.2
323.251	-26.65
324.047	-16.4
324.844	-17.42
325.64	-17.43
326.436	-14.35
327.232	-32.8
328.028	-15.38
328.824	-21.53
329.62	-18.45
330.415	-12.3
331.211	-26.65
332.006	-18.45
332.802	-30.75
333.597	-25.63
334.392	-17.43
335.187	-15.37
335.982	-11.28
336.777	-4.1
337.572	-37.93
338.367	-19.48
339.162	-20.5
339.956	-9.23
340.751	-21.53
341.545	-21.52
342.34	-13.32
343.134	-10.25
343.928	-27.67
344.722	-7.17
345.516	-20.5
346.31	-33.83
347.104	-25.63
347.898	-8.2
348.691	-10.25
349.485	-12.3
350.278	-34.85
351.072	-10.25
351.865	-458.24
352.658	-18.45
353.452	-27.67
354.245	-4.1
355.038	-14.35
355.83	-22.55
356.623	-17.43
357.416	-26.65
358.209	-6.15
359.001	-9.23
359.794	-21.53
360.586	-26.65
361.378	-32.8
362.17	-22.55
362.963	-25.63
363.755	-20.5
364.546	-18.45
365.338	-17.43
366.13	-15.38
366.922	-36.9
367.713	-29.73
368.505	-7.18
369.296	-18.45
370.088	-16.4
370.879	-23.58
371.67	-28.7
372.461	-13.33
373.252	-11.28
374.043	-11.27
374.834	-23.58
375.625	-20.5
376.415	-30.75
377.206	-27.68
377.996	-23.58
378.787	-12.3
379.577	-18.45
380.367	-8.2
381.157	-5.13
381.947	-15.38
382.737	-24.6
383.527	-19.48
384.317	-30.75
385.107	-11.28
385.896	-24.6
386.686	-20.5
387.475	-25.63
388.265	-10.25
389.054	-29.72
389.843	-17.43
390.632	-14.35
391.421	-12.3
392.21	-10.25
392.999	-21.53
393.788	-16.4
394.576	-18.45
395.365	-20.5
396.154	-21.53
396.942	-15.38
397.73	-28.7
398.519	-11.28
399.307	-21.53
400.095	-28.7
400.883	-19.47
401.671	-8.2
402.459	-4.1
403.246	-34.85
404.034	-18.45
404.822	-29.73
405.609	-24.6
406.396	-5.12
407.184	-21.53
407.971	-4.1
408.758	-8.2
409.545	-11.28
410.332	-18.45
411.119	-8.2
411.906	-14.35
412.693	-8.2
413.479	-10.25
414.266	-9.23
415.052	-11.28
415.839	-10.25
416.625	-30.75
417.411	-8.2
418.197	-9.22
418.983	-28.7
419.769	-17.43
420.555	-23.58
421.341	-18.45
422.127	-29.73
422.912	-39.98
423.698	-14.35
424.483	-21.53
425.269	-29.73
426.054	-28.71
426.839	-22.55
427.624	-15.38
428.409	-29.73
429.194	0
429.979	-4.1
430.764	-5.13
431.549	-13.33
432.333	-25.63
433.118	-19.48
433.902	-22.55
434.687	-60.48
435.471	-48.18
436.255	-20.5
437.039	-17.43
437.823	-27.68
438.607	-9.23
439.391	-37.93
440.175	-22.55
440.958	-41
441.742	-23.58
442.526	-18.45
443.309	-17.43
444.092	-21.52
444.876	-13.33
445.659	-28.7
446.442	-21.52
447.225	-39.98
448.008	-18.45
448.791	-41
449.573	-21.52
450.356	-42.02
451.139	-36.9
451.921	-16.4
452.704	-11.28
453.486	-22.55
454.268	-29.72
455.05	-16.4
455.833	-16.4
456.615	-29.73
457.396	-19.48
458.178	-4.1
458.96	-12.3
459.742	-9.23
460.523	-18.45
461.305	-21.53
462.086	-19.48
462.868	-45.1
463.649	-6.15
464.43	-20.5
465.211	-16.4
465.992	-4.1
466.773	-17.42
467.554	-2.05
468.335	-19.48
469.115	-12.3
469.896	-11.28
470.676	-17.43
471.457	-26.65
472.237	-8.2
473.018	-15.38
473.798	-17.43
474.578	-14.35
475.358	-21.53
476.138	-11.28
476.918	-14.35
477.697	-8.2
478.477	-13.32
479.257	-6.15
480.036	-10.25
480.816	-31.78
481.595	-22.55
482.374	-39.98
483.153	-20.5
483.932	-20.5
484.711	-37.93
485.49	-50.23
486.269	-22.55
487.048	-60.48
487.827	-36.9
488.605	-34.85
489.384	-32.8
490.162	-38.95
490.941	-42.02
491.719	-20.5
492.497	-37.93
493.275	-27.68
494.053	-14.35
494.831	-19.48
495.609	-11.28
496.387	-23.57
497.164	-32.8
497.942	-23.58
498.72	-21.53
499.497	-17.43
500.274	-6.15
501.052	-17.43
501.829	-2.05
502.606	-16.4
503.383	-32.8
504.16	-3.08
504.937	-21.53
505.714	-3.08
506.49	5.12
507.267	-17.43
508.043	-27.68
508.82	-33.82
509.596	4.1
510.373	-15.38
511.149	-14.35
511.925	-41
512.701	4.1
513.477	-20.5
514.253	-16.4
515.029	-24.6
515.804	-23.58
516.58	-7.17
517.356	-4.1
518.131	6.15
518.906	10.25
519.682	0
520.457	-30.75
521.232	-6.15
522.007	-5.13
522.782	-2.05
523.557	4.1
524.332	-16.4
525.107	-6.15
525.881	-10.25
526.656	-6.15
527.43	-2.05
528.205	-22.55
528.979	-3.08
529.753	0
530.527	-11.27
531.302	10.25
532.076	-11.28
532.849	-10.25
533.623	-16.4
534.397	-16.4
535.171	-4.1
535.944	0
536.718	-31.78
537.491	-11.27
538.265	-24.6
539.038	-16.4
539.811	-20.5
540.584	-21.53
541.357	-64.58
542.13	-45.09
542.903	-47.14
543.676	-50.23
544.449	-50.22
545.221	-60.47
545.994	-21.53
546.766	-28.7
547.539	-34.85
548.311	-24.6
549.083	-7.18
549.855	-18.45
550.627	-27.67
551.399	-25.63
552.171	-23.57
552.943	-14.35
553.715	-3.08
554.486	-4.1
555.258	-7.18
556.029	7.18
556.801	20.5
557.572	-9.23
558.343	-3.08
559.114	1.02
559.886	-7.18
560.657	9.23
561.427	2.05
562.198	-5.13
562.969	16.4
563.74	17.43
564.51	-2.05
565.281	-2.05
566.051	14.35
566.822	3.08
567.592	-3.08
568.362	4.1
569.132	2.05
569.902	8.2
570.672	8.2
571.442	-1.03
572.212	12.3
572.982	9.23
573.751	-2.05
574.521	-5.13
575.29	14.35
576.06	-10.25
576.829	5.13
577.598	-22.55
578.367	-25.63
579.136	10.25
579.905	-9.23
580.674	-15.37
581.443	-4.1
582.212	-13.33
582.981	-12.3
583.749	-7.18
584.518	-18.45
585.286	-7.17
586.054	-28.7
586.823	-11.27
587.591	-26.65
588.359	-22.55
589.127	-11.27
589.895	-18.45
590.663	-30.75
591.431	-17.42
592.198	-17.42
592.966	-6.15
593.734	-18.45
594.501	-3.08
595.268	15.38
596.036	-20.5
596.803	-8.2
597.57	-14.35
598.337	3.08
599.104	-32.8
599.871	-17.42
600.638	-23.57
601.405	-7.17
602.171	0
602.938	-7.17
603.704	-7.18
604.471	-10.25
605.237	-6.15
606.004	-24.6
606.77	-20.5
607.536	-22.55
608.302	-34.85
609.068	-35.87
609.834	-59.45
610.599	-108.64
611.365	-73.8
612.131	-55.35
612.896	-34.85
613.662	-52.27
614.427	-24.6
615.193	-31.77
615.958	-38.95
616.723	-19.47
617.488	-10.25
618.253	7.18
619.018	-22.55
619.783	-31.78
620.548	-11.27
621.312	-39.98
622.077	-11.28
622.842	-30.75
623.606	-15.37
624.37	-24.6
625.135	-8.2
625.899	-13.32
626.663	-15.38
627.427	-24.6
628.191	8.2
628.955	-37.92
629.719	-22.55
630.483	-52.28
631.246	-29.73
632.01	-29.73
632.773	-22.55
633.537	-5.13
634.3	-7.18
635.063	-3.08
635.827	8.2
636.59	-23.58
637.353	-14.35
638.116	-7.17
638.879	3.08
639.641	-2.05
640.404	-14.35
641.167	-8.2
641.929	-6.15
642.692	4.1
643.454	-10.25
644.216	-9.22
644.979	-2.05
645.741	-14.35
646.503	8.2
647.265	-8.2
648.027	-22.55
648.789	-14.35
649.551	-5.13
650.312	-16.4
651.074	1.03
651.835	-10.25
652.597	-4.1
653.358	-20.5
654.12	5.13
654.881	-2.05
655.642	-15.38
656.403	-11.28
657.164	-20.5
657.925	-5.13
658.686	-17.42
659.447	-15.38
660.207	6.15
660.968	-7.18
661.728	-7.17
662.489	-9.23
663.249	-10.25
664.01	-5.13
664.77	-4.1
665.53	11.27
666.29	-14.35
667.05	-12.3
667.81	-2.05
668.57	5.13
669.329	-2.05
670.089	-5.13
670.849	-6.15
671.608	-7.18
672.368	8.2
673.127	9.22
673.886	-9.23
674.646	7.18
675.405	8.2
676.164	-1.03
676.923	-4.1
677.682	-10.25
678.44	10.25
679.199	15.38
679.958	-37.91
680.717	1.03
681.475	6.15
682.233	17.43
682.992	-1.03
683.75	-14.35
684.508	-2.05
685.266	-1.03
686.024	2.05
686.782	5.13
687.54	-1.02
688.298	-2.05
689.056	5.12
689.814	-3.08
690.571	1.03
691.329	1.03
692.086	8.2
692.843	2.05
693.601	9.22
694.358	5.12
695.115	-1.03
695.872	7.18
696.629	-10.25
697.386	3.07
698.143	7.17
698.9	-10.25
699.656	-3.08
700.413	-19.48
701.169	1.02
701.926	6.15
702.682	8.2
703.438	1.03
704.195	8.2
704.951	11.28
705.707	-27.68
706.463	-19.48
707.219	-1.03
707.974	-32.8
708.73	-26.65
709.486	-4.1
710.241	-19.48
710.997	-14.35
711.752	-18.45
712.508	-2.05
713.263	-15.38
714.018	8.2
714.773	-10.25
715.528	2.05
716.283	-9.22
717.038	0
717.793	-15.38
718.548	-17.43
719.303	-12.3
720.057	0
720.812	-26.65
721.566	-14.35
722.321	-26.65
723.075	-13.33
723.829	-20.5
724.583	-10.25
725.337	-10.25
726.091	-19.47
726.845	-3.08
727.599	-18.45
728.353	-9.23
729.106	-19.48
729.86	-23.57
730.614	-23.58
731.367	26.43
732.12	-18.45
732.874	-3.08
733.627	-8.2
734.38	-9.23
735.133	-6.15
735.886	-9.23
736.639	-36.9
737.392	-8.2
738.145	-7.18
738.897	1.02
739.65	-4.1
740.403	-16.4
741.155	-16.4
741.907	-14.35
742.66	-20.5
743.412	-21.53
744.164	-15.38
744.916	-8.2
745.668	-26.65
746.42	-30.75
747.172	-3.08
747.924	-18.45
748.676	-16.4
749.427	-13.33
750.179	-17.43
750.93	4.1
751.682	-4.1
752.433	-25.62
753.184	-20.5
753.935	-7.18
754.687	-9.23
755.438	-25.63
756.189	-6.15
756.939	-13.33
757.69	-16.4
758.441	-8.2
759.192	-18.45
759.942	-12.3
760.693	-19.48
761.443	-18.45
762.194	-27.68
762.944	-17.43
763.694	-13.32
764.444	-19.48
765.194	-13.33
765.944	-11.28
766.694	-8.2
767.444	-16.4
768.194	-8.2
768.943	-16.4
769.693	-28.7
770.443	-24.6
771.192	-35.88
771.941	1.03
772.691	-26.65
773.44	-33.83
774.189	-12.3
774.938	-31.78
775.687	-28.7
776.436	-35.88
777.185	-26.65
777.934	-13.33
778.683	-8.2
779.431	-10.25
780.18	-18.45
780.928	-14.35
781.677	-28.7
782.425	-20.5
783.173	-29.72
783.922	-10.25
784.67	-22.55
785.418	-27.67
786.166	-23.57
786.914	2.05
787.661	-19.48
788.409	-16.4
789.157	-13.33
789.904	-28.7
790.652	-16.4
791.399	-17.43
792.147	-15.38
792.894	6.15
793.641	-18.45
794.388	207.48
795.136	-1.03
795.883	-1.03
796.629	-16.4
797.376	-28.7
798.123	-11.28
798.87	-15.38
799.616	-49.21
800.363	-9.22
801.109	-26.65
801.856	-13.32
802.602	-22.56
803.349	-25.62
804.095	-16.4
804.841	-22.55
805.587	-12.3
806.333	-20.5
807.079	-23.57
807.825	-8.2
808.57	-33.83
809.316	-10.25
810.062	-29.73
810.807	-21.53
811.553	4.1
812.298	-21.52
813.043	-14.35
813.788	-14.35
814.534	-10.25
815.279	-16.4
816.024	-23.57
816.769	-17.43
817.514	-21.53
818.258	-26.65
819.003	-19.47
819.748	-241.78
820.492	-11.28
821.237	-95.73
821.981	-16.4
822.726	-26.65
823.47	-37.92
824.214	-18.45
824.958	-33.83
825.702	-31.77
826.446	-23.57
827.19	2.05
827.934	-14.35
828.678	-19.48
829.421	0
830.165	-29.72
830.909	-11.28
831.652	-19.48
832.395	-26.65
833.139	-7.17
833.882	-16.4
834.625	-30.75
835.368	-16.4
836.111	-13.33
836.854	-18.45
837.597	-17.42
838.34	-19.47
839.083	10.25
839.825	-42.02
840.568	-12.3
841.311	-24.6
842.053	-13.32
842.795	-17.43
843.538	-9.23
844.28	-12.3
845.022	-11.28
845.764	-19.47
846.506	-14.35
847.248	-42.03
847.99	-15.38
848.732	-7.17
849.474	-21.53
850.215	-13.33
850.957	-16.4
851.698	-19.48
852.44	-13.32
853.181	-7.18
853.922	-10.25
854.664	-3.08
855.405	-25.62
856.146	-21.53
856.887	-20.5
857.628	-28.7
858.369	-18.45
859.109	-27.67
859.85	-20.5
860.591	-4.1
861.331	-22.55
862.072	-16.4
862.812	-19.48
863.553	-25.63
864.293	-29.72
865.033	-30.75
865.773	0
866.513	-14.35
867.253	-10.25
867.993	-7.18
868.733	-24.6
869.473	-29.73
870.213	-22.55
870.952	-28.71
871.692	-25.63
872.431	-16.4
873.171	-12.3
873.91	-10.25
874.649	-27.68
875.388	-19.48
876.128	-15.38
876.867	-28.71
877.606	-28.7
878.345	-15.38
879.083	-18.45
879.822	-23.58
880.561	-33.83
881.299	-26.65
882.038	-16.4
882.777	15.38
883.515	-41
884.253	-24.31
884.992	-10.25
885.73	-13.33
886.468	-11.28
887.206	-10.25
887.944	-22.55
888.682	-13.33
889.42	-22.55
890.157	-15.38
890.895	-10.25
891.633	-23.55
892.37	-25.63
893.108	-30.75
893.845	-13.33
894.583	-31.78
895.32	-2.05
896.057	-11.28
896.794	-5.13
897.531	-39.98
898.268	-19.48
899.005	-24.6
899.742	-13.33
900.479	-30.75
901.215	-22.55
901.952	-15.38
902.689	-12.3
903.425	-15.38
904.162	-12.3
904.898	-16.4
905.634	-6.15
906.37	-20.5
907.106	-7.18
907.843	-11.28
908.579	-30.75
909.314	-9.23
910.05	-24.6
910.786	-8.2
911.522	-24.61
912.257	-46.12
912.993	-7.18
913.728	-9.23
914.464	-23.58
915.199	-16.4
915.935	-30.76
916.67	-23.58
917.405	-26.65
918.14	-19.48
918.875	-19.48
919.61	-2.05
920.345	-26.65
921.08	-37.92
921.814	-12.3
922.549	-2.05
923.284	-28.7
924.018	-21.53
924.752	-20.5
925.487	-10.25
926.221	-4.1
926.955	-7.18
927.69	-13.33
928.424	-9.23
929.158	-31.78
929.892	-14.35
930.625	-16.4
931.359	-17.42
932.093	-14.35
932.827	-12.3
933.56	-24.6
934.294	-20.5
935.027	1.03
935.761	-18.45
936.494	-13.33
937.227	-31.78
937.96	-18.45
938.693	-22.55
939.426	-31.78
940.159	-35.87
940.892	-21.53
941.625	-22.55
942.358	-22.55
943.091	-29.73
943.823	-24.6
944.556	-15.38
945.288	-8.2
946.021	-14.35
946.753	-12.3
947.485	-29.73
948.217	-2.05
948.95	-27.68
949.682	-20.5
950.414	-20.5
951.146	-29.73
951.877	-14.35
952.609	17.43
953.341	-14.35
954.073	-17.42
954.804	-20.5
955.536	-3.08
956.267	-26.65
956.998	4.1
957.73	-35.88
958.461	-20.5
959.192	-8.2
959.923	-16.4
960.654	-15.38
961.385	6.15
962.116	-13.33
962.847	-18.45
963.578	-25.63
964.308	-33.83
965.039	-7.18
965.769	-24.6
966.5	-24.6
967.23	-11.28
967.961	-16.4
968.691	-23.58
969.421	-26.66
970.151	-21.53
970.881	-20.5
971.611	-34.85
972.341	-23.58
973.071	-27.67
973.801	-20.5
974.53	-6.15
975.26	-27.68
975.99	-9.23
976.719	-19.47
977.448	-6.15
978.178	-33.83
978.907	-10.25
979.636	-16.4
980.365	-18.45
981.095	-15.37
981.824	-29.73
982.553	-18.45
983.281	-30.75
984.01	-1.03
984.739	1.03
985.468	4.1
986.196	3.08
986.925	-31.77
987.653	-33.83
988.382	-16.4
989.11	-24.6
989.838	-6.15
990.566	-10.25
991.295	-20.5
992.023	-12.3
992.751	-21.52
993.478	0
994.206	-14.35
994.934	-21.53
995.662	-4.1
996.389	4.1
997.117	-16.41
997.845	9.23
