Data from White_Subt2_010.txt Node
Date: Tue Aug 27 12:40:09 EDT 2019
User: wcc
Spectrometer: QEPB0759
Trigger mode: 0
Integration Time (sec): 1.000000E0
Scans to average: 1
Electric dark correction enabled: true
Nonlinearity correction enabled: false
Boxcar width: 0
XAxis mode: Wavelengths
Number of Pixels in Spectrum: 1044
>>>>>Begin Spectral Data<<<<<
197.938	39.25
198.749	53.25
199.559	35.25
200.369	31.25
201.179	33.25
201.988	32.25
202.798	46.25
203.608	18.25
204.417	33.25
205.227	50.25
206.036	30.25
206.846	37.25
207.655	40.25
208.464	27.25
209.273	27.25
210.082	40.25
210.891	40.25
211.7	47.25
212.508	50.25
213.317	21.25
214.125	31.25
214.934	39.25
215.742	21.25
216.55	41.25
217.359	30.25
218.167	34.25
218.975	47.25
219.782	34.25
220.59	30.25
221.398	24.25
222.206	32.25
223.013	50.25
223.82	44.25
224.628	40.25
225.435	45.25
226.242	44.25
227.049	33.25
227.856	32.25
228.663	39.25
229.47	34.25
230.277	47.25
231.083	38.25
231.89	35.25
232.696	44.25
233.502	41.25
234.309	54.25
235.115	48.25
235.921	35.25
236.727	40.25
237.533	27.25
238.339	39.25
239.144	40.25
239.95	35.25
240.756	45.25
241.561	40.25
242.366	43.25
243.172	48.25
243.977	45.25
244.782	40.25
245.587	39.25
246.392	38.25
247.197	19.25
248.001	37.25
248.806	51.25
249.611	27.25
250.415	32.25
251.219	41.25
252.024	27.25
252.828	37.25
253.632	39.25
254.436	35.25
255.24	48.25
256.044	33.25
256.848	38.25
257.651	39.25
258.455	39.25
259.258	37.25
260.062	-1080.75
260.865	42.25
261.668	41.25
262.471	23.25
263.274	40.25
264.077	33.25
264.88	28.25
265.683	45.25
266.486	26.25
267.288	35.25
268.091	42.25
268.893	37.25
269.696	48.25
270.498	41.25
271.3	34.25
272.102	46.25
272.904	41.25
273.706	28.25
274.508	30.25
275.309	51.25
276.111	45.25
276.913	46.25
277.714	38.25
278.515	37.25
279.317	52.25
280.118	40.25
280.919	34.25
281.72	37.25
282.521	47.25
283.322	32.25
284.122	33.25
284.923	28.25
285.724	45.25
286.524	51.25
287.325	53.25
288.125	41.25
288.925	48.25
289.725	30.25
290.525	42.25
291.325	40.25
292.125	33.25
292.925	48.25
293.724	42.25
294.524	47.25
295.324	36.25
296.123	41.25
296.922	40.25
297.722	38.25
298.521	47.25
299.32	46.25
300.119	42.25
300.918	38.25
301.716	34.25
302.515	41.25
303.314	58.25
304.112	40.25
304.911	43.25
305.709	43.25
306.507	39.25
307.306	35.25
308.104	46.25
308.902	40.25
309.7	49.25
310.498	39.25
311.295	47.25
312.093	46.25
312.891	36.25
313.688	47.25
314.485	47.25
315.283	43.25
316.08	50.25
316.877	39.25
317.674	20.25
318.471	56.25
319.268	44.25
320.065	30.25
320.862	46.25
321.658	41.25
322.455	40.25
323.251	45.25
324.047	45.25
324.844	49.25
325.64	35.25
326.436	43.25
327.232	32.25
328.028	49.25
328.824	39.25
329.62	43.25
330.415	33.25
331.211	44.25
332.006	39.25
332.802	49.25
333.597	44.25
334.392	42.25
335.187	35.25
335.982	48.25
336.777	44.25
337.572	46.25
338.367	49.25
339.162	44.25
339.956	39.25
340.751	44.25
341.545	38.25
342.34	45.25
343.134	49.25
343.928	31.25
344.722	49.25
345.516	42.25
346.31	51.25
347.104	49.25
347.898	42.25
348.691	39.25
349.485	41.25
350.278	35.25
351.072	49.25
351.865	178.25
352.658	52.25
353.452	41.25
354.245	37.25
355.038	46.25
355.83	34.25
356.623	50.25
357.416	41.25
358.209	41.25
359.001	42.25
359.794	47.25
360.586	59.25
361.378	42.25
362.17	34.25
362.963	41.25
363.755	44.25
364.546	38.25
365.338	43.25
366.13	56.25
366.922	47.25
367.713	46.25
368.505	50.25
369.296	45.25
370.088	46.25
370.879	65.25
371.67	45.25
372.461	54.25
373.252	61.25
374.043	67.25
374.834	61.25
375.625	81.25
376.415	84.25
377.206	83.25
377.996	118.25
378.787	148.25
379.577	148.25
380.367	172.25
381.157	191.25
381.947	241.25
382.737	263.25
383.527	308.25
384.317	367.25
385.107	439.25
385.896	477.25
386.686	561.25
387.475	654.25
388.265	743.25
389.054	835.25
389.843	920.25
390.632	1061.25
391.421	1169.25
392.21	1293.25
392.999	1423.25
393.788	1571.25
394.576	1743.25
395.365	1881.25
396.154	2081.25
396.942	2232.25
397.73	2430.25
398.519	2568.25
399.307	2736.25
400.095	2901.25
400.883	3064.25
401.671	3245.25
402.459	3437.25
403.246	3639.25
404.034	3837.25
404.822	4005.25
405.609	4180.25
406.396	4276.25
407.184	4378.25
407.971	4517.25
408.758	4600.25
409.545	4714.25
410.332	4790.25
411.119	4972.25
411.906	5099.25
412.693	5330.25
413.479	5549.25
414.266	5833.25
415.052	6127.25
415.839	6437.25
416.625	6780.25
417.411	7115.25
418.197	7449.25
418.983	7661.25
419.769	7714.25
420.555	7650.25
421.341	7563.25
422.127	7446.25
422.912	7436.25
423.698	7350.25
424.483	7413.25
425.269	7496.25
426.054	7654.25
426.839	7880.25
427.624	8107.25
428.409	8400.25
429.194	8725.25
429.979	9053.25
430.764	9330.25
431.549	9669.25
432.333	9890.25
433.118	10080.25
433.902	10260.25
434.687	10353.25
435.471	10505.25
436.255	10646.25
437.039	10836.25
437.823	11019.25
438.607	11078.25
439.391	11084.25
440.175	11117.25
440.958	11236.25
441.742	11377.25
442.526	11608.25
443.309	11743.25
444.092	11909.25
444.876	12109.25
445.659	12308.25
446.442	12467.25
447.225	12787.25
448.008	13411.25
448.791	14610.25
449.573	15715.25
450.356	15750.25
451.139	15602.25
451.921	15759.25
452.704	15669.25
453.486	15574.25
454.268	15842.25
455.05	16336.25
455.833	16856.25
456.615	17388.25
457.396	17946.25
458.178	18188.25
458.96	18139.25
459.742	18225.25
460.523	18618.25
461.305	19170.25
462.086	19728.25
462.868	19998.25
463.649	19793.25
464.43	19718.25
465.211	20102.25
465.992	21230.25
466.773	23007.25
467.554	24141.25
468.335	24141.25
469.115	23524.25
469.896	22812.25
470.676	22288.25
471.457	22583.25
472.237	24349.25
473.018	25174.25
473.798	23718.25
474.578	21998.25
475.358	21488.25
476.138	21293.25
476.918	21376.25
477.697	21494.25
478.477	22006.25
479.257	22910.25
480.036	24161.25
480.816	25291.25
481.595	25622.25
482.374	25716.25
483.153	25624.25
483.932	25416.25
484.711	25020.25
485.49	24903.25
486.269	25112.25
487.048	25373.25
487.827	25789.25
488.605	26324.25
489.384	26985.25
490.162	28169.25
490.941	30012.25
491.719	31538.25
492.497	31681.25
493.275	31239.25
494.053	30669.25
494.831	30229.25
495.609	30052.25
496.387	30054.25
497.164	30061.25
497.942	30187.25
498.72	30341.25
499.497	30434.25
500.274	30729.25
501.052	30991.25
501.829	31340.25
502.606	31602.25
503.383	31889.25
504.16	32066.25
504.937	32185.25
505.714	32342.25
506.49	32592.25
507.267	32830.25
508.043	33076.25
508.82	33300.25
509.596	33630.25
510.373	33959.25
511.149	34359.25
511.925	34731.25
512.701	35183.25
513.477	35481.25
514.253	35708.25
515.029	36013.25
515.804	36317.25
516.58	36667.25
517.356	37068.25
518.131	37290.25
518.906	37614.25
519.682	37996.25
520.457	38253.25
521.232	38533.25
522.007	38767.25
522.782	38998.25
523.557	39181.25
524.332	39337.25
525.107	39391.25
525.881	39594.25
526.656	39663.25
527.43	39747.25
528.205	39798.25
528.979	39776.25
529.753	39641.25
530.527	39550.25
531.302	39379.25
532.076	39297.25
532.849	39181.25
533.623	39067.25
534.397	38847.25
535.171	38591.25
535.944	38446.25
536.718	38301.25
537.491	38041.25
538.265	38007.25
539.038	38013.25
539.811	37954.25
540.584	38036.25
541.357	38019.25
542.13	38065.25
542.903	37966.25
543.676	37784.25
544.449	37904.25
545.221	37887.25
545.994	37810.25
546.766	37945.25
547.539	37961.25
548.311	37916.25
549.083	38028.25
549.855	38086.25
550.627	38313.25
551.399	38473.25
552.171	38698.25
552.943	38977.25
553.715	39178.25
554.486	39407.25
555.258	39732.25
556.029	39954.25
556.801	40316.25
557.572	40554.25
558.343	40840.25
559.114	41097.25
559.886	41374.25
560.657	41715.25
561.427	42029.25
562.198	42256.25
562.969	42521.25
563.74	42664.25
564.51	42725.25
565.281	42891.25
566.051	42913.25
566.822	43106.25
567.592	43043.25
568.362	42904.25
569.132	42885.25
569.902	42699.25
570.672	42448.25
571.442	42319.25
572.212	42104.25
572.982	41905.25
573.751	41703.25
574.521	41576.25
575.29	41444.25
576.06	41263.25
576.829	41016.25
577.598	41025.25
578.367	40863.25
579.136	40731.25
579.905	40645.25
580.674	40720.25
581.443	40591.25
582.212	40680.25
582.981	40649.25
583.749	40753.25
584.518	40773.25
585.286	40802.25
586.054	40910.25
586.823	40947.25
587.591	40961.25
588.359	41028.25
589.127	41083.25
589.895	41107.25
590.663	41022.25
591.431	40972.25
592.198	41120.25
592.966	41041.25
593.734	40980.25
594.501	40779.25
595.268	40622.25
596.036	40523.25
596.803	40274.25
597.57	40204.25
598.337	39942.25
599.104	39760.25
599.871	39491.25
600.638	39239.25
601.405	39097.25
602.171	38884.25
602.938	38697.25
603.704	38552.25
604.471	38397.25
605.237	38142.25
606.004	37971.25
606.77	37841.25
607.536	37766.25
608.302	37765.25
609.068	37745.25
609.834	37670.25
610.599	37717.25
611.365	37779.25
612.131	37788.25
612.896	37813.25
613.662	37739.25
614.427	37782.25
615.193	37720.25
615.958	37615.25
616.723	37608.25
617.488	37470.25
618.253	37426.25
619.018	37420.25
619.783	37249.25
620.548	37141.25
621.312	37036.25
622.077	36951.25
622.842	36691.25
623.606	36472.25
624.37	36218.25
625.135	36021.25
625.899	35787.25
626.663	35519.25
627.427	35180.25
628.191	34927.25
628.955	34624.25
629.719	34433.25
630.483	34111.25
631.246	33686.25
632.01	33353.25
632.773	33045.25
633.537	32645.25
634.3	32343.25
635.063	31906.25
635.827	31576.25
636.59	31125.25
637.353	30816.25
638.116	30390.25
638.879	30069.25
639.641	29751.25
640.404	29455.25
641.167	29060.25
641.929	28765.25
642.692	28488.25
643.454	28191.25
644.216	28007.25
644.979	27806.25
645.741	27595.25
646.503	27450.25
647.265	27391.25
648.027	27146.25
648.789	27042.25
649.551	26854.25
650.312	26384.25
651.074	25922.25
651.835	25487.25
652.597	25221.25
653.358	24971.25
654.12	24677.25
654.881	24588.25
655.642	24450.25
656.403	24249.25
657.164	24197.25
657.925	24146.25
658.686	24097.25
659.447	24084.25
660.207	24140.25
660.968	24163.25
661.728	24214.25
662.489	24275.25
663.249	24437.25
664.01	24516.25
664.77	24694.25
665.53	24743.25
666.29	24866.25
667.05	25006.25
667.81	25073.25
668.57	25080.25
669.329	25160.25
670.089	25241.25
670.849	25314.25
671.608	25390.25
672.368	25437.25
673.127	25404.25
673.886	25336.25
674.646	25323.25
675.405	25362.25
676.164	25277.25
676.923	25106.25
677.682	24943.25
678.44	24873.25
679.199	24730.25
679.958	24734.25
680.717	24764.25
681.475	25194.25
682.233	25815.25
682.992	25935.25
683.75	25379.25
684.508	24878.25
685.266	24191.25
686.024	23810.25
686.782	23470.25
687.54	23237.25
688.298	22955.25
689.056	22599.25
689.814	22294.25
690.571	21832.25
691.329	21392.25
692.086	20987.25
692.843	20549.25
693.601	20247.25
694.358	19820.25
695.115	19446.25
695.872	19101.25
696.629	18793.25
697.386	18574.25
698.143	18241.25
698.9	18028.25
699.656	17889.25
700.413	17700.25
701.169	17535.25
701.926	17429.25
702.682	17355.25
703.438	17222.25
704.195	17062.25
704.951	16920.25
705.707	16802.25
706.463	16728.25
707.219	16660.25
707.974	16609.25
708.73	16615.25
709.486	16581.25
710.241	16550.25
710.997	16451.25
711.752	16384.25
712.508	16146.25
713.263	15784.25
714.018	15414.25
714.773	14989.25
715.528	14548.25
716.283	14080.25
717.038	13637.25
717.793	13209.25
718.548	12680.25
719.303	12200.25
720.057	11641.25
720.812	11228.25
721.566	10845.25
722.321	10488.25
723.075	10202.25
723.829	9943.25
724.583	9734.25
725.337	9586.25
726.091	9382.25
726.845	9308.25
727.599	9211.25
728.353	9104.25
729.106	8942.25
729.86	8862.25
730.614	8908.25
731.367	8991.25
732.12	9047.25
732.874	8950.25
733.627	8576.25
734.38	8263.25
735.133	7824.25
735.886	7478.25
736.639	7249.25
737.392	7061.25
738.145	6963.25
738.897	6878.25
739.65	6825.25
740.403	6703.25
741.155	6564.25
741.907	6260.25
742.66	5793.25
743.412	5257.25
744.164	4543.25
744.916	3774.25
745.668	2869.25
746.42	1964.25
747.172	1190.25
747.924	632.25
748.676	349.25
749.427	234.25
750.179	194.25
750.93	165.25
751.682	150.25
752.433	144.25
753.184	132.25
753.935	127.25
754.687	111.25
755.438	115.25
756.189	117.25
756.939	100.25
757.69	100.25
758.441	107.25
759.192	99.25
759.942	100.25
760.693	114.25
761.443	112.25
762.194	95.25
762.944	92.25
763.694	99.25
764.444	92.25
765.194	96.25
765.944	83.25
766.694	89.25
767.444	83.25
768.194	87.25
768.943	77.25
769.693	82.25
770.443	71.25
771.192	86.25
771.941	67.25
772.691	70.25
773.44	59.25
774.189	75.25
774.938	70.25
775.687	71.25
776.436	62.25
777.185	73.25
777.934	70.25
778.683	66.25
779.431	74.25
780.18	77.25
780.928	59.25
781.677	64.25
782.425	67.25
783.173	72.25
783.922	65.25
784.67	58.25
785.418	75.25
786.166	67.25
786.914	68.25
787.661	53.25
788.409	72.25
789.157	72.25
789.904	51.25
790.652	64.25
791.399	53.25
792.147	73.25
792.894	52.25
793.641	51.25
794.388	243.25
795.136	53.25
795.883	44.25
796.629	39.25
797.376	46.25
798.123	41.25
798.87	50.25
799.616	48.25
800.363	59.25
801.109	36.25
801.856	49.25
802.602	34.25
803.349	52.25
804.095	49.25
804.841	44.25
805.587	38.25
806.333	50.25
807.079	59.25
807.825	42.25
808.57	44.25
809.316	55.25
810.062	41.25
810.807	42.25
811.553	40.25
812.298	56.25
813.043	47.25
813.788	54.25
814.534	33.25
815.279	42.25
816.024	40.25
816.769	36.25
817.514	37.25
818.258	45.25
819.003	46.25
819.748	-66.75
820.492	38.25
821.237	99.25
821.981	29.25
822.726	46.25
823.47	39.25
824.214	26.25
824.958	39.25
825.702	43.25
826.446	34.25
827.19	30.25
827.934	33.25
828.678	30.25
829.421	24.25
830.165	30.25
830.909	36.25
831.652	18.25
832.395	37.25
833.139	32.25
833.882	40.25
834.625	21.25
835.368	33.25
836.111	42.25
836.854	42.25
837.597	30.25
838.34	34.25
839.083	29.25
839.825	29.25
840.568	34.25
841.311	24.25
842.053	42.25
842.795	28.25
843.538	33.25
844.28	35.25
845.022	21.25
845.764	33.25
846.506	19.25
847.248	32.25
847.99	23.25
848.732	34.25
849.474	25.25
850.215	25.25
850.957	34.25
851.698	29.25
852.44	26.25
853.181	45.25
853.922	26.25
854.664	31.25
855.405	35.25
856.146	45.25
856.887	39.25
857.628	26.25
858.369	23.25
859.109	39.25
859.85	38.25
860.591	17.25
861.331	38.25
862.072	32.25
862.812	19.25
863.553	27.25
864.293	33.25
865.033	39.25
865.773	24.25
866.513	23.25
867.253	23.25
867.993	26.25
868.733	28.25
869.473	25.25
870.213	35.25
870.952	32.25
871.692	31.25
872.431	32.25
873.171	36.25
873.91	22.25
874.649	28.25
875.388	46.25
876.128	31.25
876.867	27.25
877.606	27.25
878.345	28.25
879.083	31.25
879.822	32.25
880.561	25.25
881.299	45.25
882.038	22.25
882.777	29.25
883.515	20.25
884.253	-63.75
884.992	35.25
885.73	30.25
886.468	24.25
887.206	28.25
887.944	42.25
888.682	27.25
889.42	41.25
890.157	34.25
890.895	22.25
891.633	25.25
892.37	30.25
893.108	33.25
893.845	29.25
894.583	26.25
895.32	33.25
896.057	27.25
896.794	31.25
897.531	27.25
898.268	19.25
899.005	29.25
899.742	42.25
900.479	26.25
901.215	10.25
901.952	35.25
902.689	27.25
903.425	20.25
904.162	3.25
904.898	20.25
905.634	18.25
906.37	30.25
907.106	23.25
907.843	23.25
908.579	27.25
909.314	21.25
910.05	33.25
910.786	29.25
911.522	8.25
912.257	13.25
912.993	15.25
913.728	16.25
914.464	28.25
915.199	16.25
915.935	32.25
916.67	30.25
917.405	8.25
918.14	16.25
918.875	20.25
919.61	40.25
920.345	27.25
921.08	32.25
921.814	23.25
922.549	20.25
923.284	19.25
924.018	15.25
924.752	16.25
925.487	27.25
926.221	27.25
926.955	16.25
927.69	12.25
928.424	22.25
929.158	24.25
929.892	17.25
930.625	24.25
931.359	24.25
932.093	22.25
932.827	21.25
933.56	27.25
934.294	13.25
935.027	25.25
935.761	22.25
936.494	34.25
937.227	18.25
937.96	23.25
938.693	27.25
939.426	35.25
940.159	22.25
940.892	18.25
941.625	12.25
942.358	19.25
943.091	27.25
943.823	22.25
944.556	18.25
945.288	25.25
946.021	21.25
946.753	23.25
947.485	31.25
948.217	21.25
948.95	28.25
949.682	17.25
950.414	19.25
951.146	21.25
951.877	25.25
952.609	21.25
953.341	19.25
954.073	33.25
954.804	25.25
955.536	26.25
956.267	25.25
956.998	14.25
957.73	11.25
958.461	11.25
959.192	28.25
959.923	24.25
960.654	34.25
961.385	19.25
962.116	16.25
962.847	29.25
963.578	13.25
964.308	29.25
965.039	22.25
965.769	23.25
966.5	24.25
967.23	24.25
967.961	24.25
968.691	33.25
969.421	20.25
970.151	28.25
970.881	24.25
971.611	39.25
972.341	25.25
973.071	9.25
973.801	25.25
974.53	28.25
975.26	22.25
975.99	17.25
976.719	17.25
977.448	27.25
978.178	25.25
978.907	25.25
979.636	23.25
980.365	19.25
981.095	15.25
981.824	24.25
982.553	29.25
983.281	12.25
984.01	-1.75
984.739	-1.75
985.468	3.25
986.196	-3.75
986.925	52.25
987.653	44.25
988.382	25.25
989.11	29.25
989.838	35.25
990.566	32.25
991.295	12.25
992.023	20.25
992.751	34.25
993.478	18.25
994.206	28.25
994.934	15.25
995.662	0.25
996.389	1.25
997.117	5.25
997.845	-2.75
