Data from White_Subt2_008.txt Node
Date: Tue Aug 27 12:40:07 EDT 2019
User: wcc
Spectrometer: QEPB0759
Trigger mode: 0
Integration Time (sec): 1.000000E0
Scans to average: 1
Electric dark correction enabled: true
Nonlinearity correction enabled: false
Boxcar width: 0
XAxis mode: Wavelengths
Number of Pixels in Spectrum: 1044
>>>>>Begin Spectral Data<<<<<
197.938	36.62
198.749	35.62
199.559	43.62
200.369	30.62
201.179	30.62
201.988	28.62
202.798	47.62
203.608	30.62
204.417	33.62
205.227	27.62
206.036	25.62
206.846	43.62
207.655	38.62
208.464	31.62
209.273	44.62
210.082	42.62
210.891	36.62
211.7	41.62
212.508	44.62
213.317	43.62
214.125	36.62
214.934	41.62
215.742	30.62
216.55	42.62
217.359	41.62
218.167	48.62
218.975	46.62
219.782	41.62
220.59	41.62
221.398	29.62
222.206	47.62
223.013	48.62
223.82	48.62
224.628	35.62
225.435	49.62
226.242	36.62
227.049	35.62
227.856	31.62
228.663	42.62
229.47	36.62
230.277	43.62
231.083	40.62
231.89	33.62
232.696	41.62
233.502	43.62
234.309	45.62
235.115	39.62
235.921	38.62
236.727	41.62
237.533	31.62
238.339	39.62
239.144	39.62
239.95	35.62
240.756	45.62
241.561	37.62
242.366	45.62
243.172	43.62
243.977	37.62
244.782	33.62
245.587	43.62
246.392	45.62
247.197	18.62
248.001	44.62
248.806	56.62
249.611	42.62
250.415	43.62
251.219	42.62
252.024	35.62
252.828	43.62
253.632	38.62
254.436	47.62
255.24	51.62
256.044	36.62
256.848	26.62
257.651	42.62
258.455	48.62
259.258	37.62
260.062	-2362.38
260.865	43.62
261.668	43.62
262.471	33.62
263.274	49.62
264.077	40.62
264.88	34.62
265.683	39.62
266.486	21.62
267.288	30.62
268.091	43.62
268.893	51.62
269.696	41.62
270.498	43.62
271.3	42.62
272.102	43.62
272.904	32.62
273.706	45.62
274.508	34.62
275.309	61.62
276.111	54.62
276.913	43.62
277.714	40.62
278.515	31.62
279.317	44.62
280.118	50.62
280.919	45.62
281.72	39.62
282.521	53.62
283.322	38.62
284.122	39.62
284.923	42.62
285.724	32.62
286.524	51.62
287.325	50.62
288.125	41.62
288.925	46.62
289.725	37.62
290.525	48.62
291.325	55.62
292.125	33.62
292.925	51.62
293.724	39.62
294.524	36.62
295.324	48.62
296.123	46.62
296.922	54.62
297.722	54.62
298.521	44.62
299.32	33.62
300.119	40.62
300.918	49.62
301.716	42.62
302.515	36.62
303.314	47.62
304.112	49.62
304.911	36.62
305.709	44.62
306.507	44.62
307.306	37.62
308.104	47.62
308.902	55.62
309.7	60.62
310.498	50.62
311.295	49.62
312.093	54.62
312.891	33.62
313.688	49.62
314.485	38.62
315.283	50.62
316.08	36.62
316.877	52.62
317.674	25.62
318.471	50.62
319.268	49.62
320.065	32.62
320.862	54.62
321.658	44.62
322.455	48.62
323.251	53.62
324.047	46.62
324.844	42.62
325.64	42.62
326.436	49.62
327.232	41.62
328.028	33.62
328.824	56.62
329.62	47.62
330.415	51.62
331.211	40.62
332.006	48.62
332.802	54.62
333.597	48.62
334.392	41.62
335.187	48.62
335.982	49.62
336.777	44.62
337.572	46.62
338.367	51.62
339.162	45.62
339.956	39.62
340.751	44.62
341.545	50.62
342.34	32.62
343.134	54.62
343.928	41.62
344.722	45.62
345.516	50.62
346.31	49.62
347.104	43.62
347.898	52.62
348.691	47.62
349.485	55.62
350.278	35.62
351.072	53.62
351.865	530.62
352.658	54.62
353.452	44.62
354.245	48.62
355.038	44.62
355.83	46.62
356.623	60.62
357.416	61.62
358.209	49.62
359.001	52.62
359.794	50.62
360.586	60.62
361.378	47.62
362.17	30.62
362.963	39.62
363.755	46.62
364.546	49.62
365.338	50.62
366.13	46.62
366.922	49.62
367.713	50.62
368.505	54.62
369.296	52.62
370.088	60.62
370.879	58.62
371.67	58.62
372.461	58.62
373.252	59.62
374.043	59.62
374.834	69.62
375.625	95.62
376.415	72.62
377.206	109.62
377.996	120.62
378.787	123.62
379.577	143.62
380.367	173.62
381.157	205.62
381.947	246.62
382.737	263.62
383.527	318.62
384.317	385.62
385.107	435.62
385.896	479.62
386.686	560.62
387.475	650.62
388.265	740.62
389.054	839.62
389.843	930.62
390.632	1048.62
391.421	1162.62
392.21	1293.62
392.999	1399.62
393.788	1587.62
394.576	1743.62
395.365	1911.62
396.154	2065.62
396.942	2235.62
397.73	2407.62
398.519	2587.62
399.307	2732.62
400.095	2890.62
400.883	3082.62
401.671	3247.62
402.459	3458.62
403.246	3621.62
404.034	3859.62
404.822	3980.62
405.609	4173.62
406.396	4284.62
407.184	4428.62
407.971	4514.62
408.758	4604.62
409.545	4681.62
410.332	4823.62
411.119	4957.62
411.906	5139.62
412.693	5346.62
413.479	5567.62
414.266	5836.62
415.052	6147.62
415.839	6466.62
416.625	6786.62
417.411	7114.62
418.197	7410.62
418.983	7688.62
419.769	7745.62
420.555	7657.62
421.341	7571.62
422.127	7467.62
422.912	7388.62
423.698	7337.62
424.483	7429.62
425.269	7526.62
426.054	7694.62
426.839	7876.62
427.624	8131.62
428.409	8427.62
429.194	8698.62
429.979	9066.62
430.764	9377.62
431.549	9662.62
432.333	9902.62
433.118	10099.62
433.902	10262.62
434.687	10423.62
435.471	10540.62
436.255	10625.62
437.039	10863.62
437.823	11035.62
438.607	11108.62
439.391	11079.62
440.175	11101.62
440.958	11248.62
441.742	11438.62
442.526	11566.62
443.309	11738.62
444.092	11919.62
444.876	12094.62
445.659	12238.62
446.442	12538.62
447.225	12792.62
448.008	13447.62
448.791	14656.62
449.573	15681.62
450.356	15759.62
451.139	15641.62
451.921	15778.62
452.704	15640.62
453.486	15546.62
454.268	15888.62
455.05	16340.62
455.833	16819.62
456.615	17407.62
457.396	18018.62
458.178	18113.62
458.96	18125.62
459.742	18235.62
460.523	18588.62
461.305	19143.62
462.086	19659.62
462.868	19960.62
463.649	19861.62
464.43	19794.62
465.211	20066.62
465.992	21247.62
466.773	23015.62
467.554	24183.62
468.335	24196.62
469.115	23557.62
469.896	22826.62
470.676	22271.62
471.457	22544.62
472.237	24386.62
473.018	25206.62
473.798	23700.62
474.578	22113.62
475.358	21445.62
476.138	21295.62
476.918	21360.62
477.697	21504.62
478.477	22042.62
479.257	22858.62
480.036	24134.62
480.816	25197.62
481.595	25711.62
482.374	25707.62
483.153	25703.62
483.932	25415.62
484.711	25059.62
485.49	24969.62
486.269	25060.62
487.048	25456.62
487.827	25840.62
488.605	26402.62
489.384	27096.62
490.162	28145.62
490.941	29995.62
491.719	31551.62
492.497	31821.62
493.275	31294.62
494.053	30752.62
494.831	30231.62
495.609	30036.62
496.387	30040.62
497.164	30059.62
497.942	30310.62
498.72	30403.62
499.497	30435.62
500.274	30721.62
501.052	31001.62
501.829	31376.62
502.606	31670.62
503.383	31925.62
504.16	32099.62
504.937	32194.62
505.714	32336.62
506.49	32592.62
507.267	32823.62
508.043	33112.62
508.82	33295.62
509.596	33626.62
510.373	33927.62
511.149	34359.62
511.925	34827.62
512.701	35223.62
513.477	35498.62
514.253	35763.62
515.029	36064.62
515.804	36361.62
516.58	36699.62
517.356	37057.62
518.131	37386.62
518.906	37706.62
519.682	37977.62
520.457	38251.62
521.232	38546.62
522.007	38758.62
522.782	39043.62
523.557	39238.62
524.332	39318.62
525.107	39427.62
525.881	39484.62
526.656	39665.62
527.43	39712.62
528.205	39841.62
528.979	39756.62
529.753	39626.62
530.527	39486.62
531.302	39399.62
532.076	39352.62
532.849	39220.62
533.623	39088.62
534.397	38864.62
535.171	38644.62
535.944	38511.62
536.718	38343.62
537.491	38074.62
538.265	38011.62
539.038	38017.62
539.811	37936.62
540.584	38067.62
541.357	38107.62
542.13	38028.62
542.903	37998.62
543.676	37933.62
544.449	37845.62
545.221	37881.62
545.994	37893.62
546.766	37887.62
547.539	37943.62
548.311	38023.62
549.083	38062.62
549.855	38066.62
550.627	38350.62
551.399	38540.62
552.171	38780.62
552.943	39020.62
553.715	39170.62
554.486	39454.62
555.258	39725.62
556.029	40022.62
556.801	40259.62
557.572	40620.62
558.343	40876.62
559.114	41162.62
559.886	41505.62
560.657	41737.62
561.427	42008.62
562.198	42294.62
562.969	42536.62
563.74	42725.62
564.51	42799.62
565.281	42943.62
566.051	43044.62
566.822	43131.62
567.592	43145.62
568.362	43032.62
569.132	42905.62
569.902	42712.62
570.672	42544.62
571.442	42370.62
572.212	42125.62
572.982	41933.62
573.751	41824.62
574.521	41720.62
575.29	41482.62
576.06	41395.62
576.829	41168.62
577.598	40927.62
578.367	40892.62
579.136	40773.62
579.905	40682.62
580.674	40714.62
581.443	40732.62
582.212	40705.62
582.981	40664.62
583.749	40708.62
584.518	40781.62
585.286	40911.62
586.054	40973.62
586.823	41052.62
587.591	41030.62
588.359	41096.62
589.127	41007.62
589.895	41114.62
590.663	41088.62
591.431	41059.62
592.198	41043.62
592.966	41017.62
593.734	40949.62
594.501	40810.62
595.268	40728.62
596.036	40609.62
596.803	40396.62
597.57	40202.62
598.337	39969.62
599.104	39744.62
599.871	39472.62
600.638	39293.62
601.405	39047.62
602.171	38918.62
602.938	38748.62
603.704	38519.62
604.471	38345.62
605.237	38213.62
606.004	38008.62
606.77	37911.62
607.536	37770.62
608.302	37747.62
609.068	37744.62
609.834	37768.62
610.599	37787.62
611.365	37859.62
612.131	37844.62
612.896	37800.62
613.662	37810.62
614.427	37684.62
615.193	37747.62
615.958	37640.62
616.723	37651.62
617.488	37547.62
618.253	37508.62
619.018	37430.62
619.783	37271.62
620.548	37183.62
621.312	37113.62
622.077	36923.62
622.842	36749.62
623.606	36497.62
624.37	36200.62
625.135	36033.62
625.899	35813.62
626.663	35500.62
627.427	35108.62
628.191	34908.62
628.955	34638.62
629.719	34401.62
630.483	34086.62
631.246	33787.62
632.01	33355.62
632.773	33054.62
633.537	32650.62
634.3	32340.62
635.063	31974.62
635.827	31584.62
636.59	31247.62
637.353	30813.62
638.116	30469.62
638.879	30049.62
639.641	29753.62
640.404	29372.62
641.167	29137.62
641.929	28784.62
642.692	28511.62
643.454	28317.62
644.216	28053.62
644.979	27773.62
645.741	27619.62
646.503	27483.62
647.265	27341.62
648.027	27181.62
648.789	27025.62
649.551	26864.62
650.312	26489.62
651.074	25905.62
651.835	25549.62
652.597	25236.62
653.358	24994.62
654.12	24722.62
654.881	24552.62
655.642	24450.62
656.403	24272.62
657.164	24188.62
657.925	24158.62
658.686	24148.62
659.447	24112.62
660.207	24186.62
660.968	24301.62
661.728	24261.62
662.489	24345.62
663.249	24440.62
664.01	24583.62
664.77	24618.62
665.53	24777.62
666.29	24867.62
667.05	24978.62
667.81	25048.62
668.57	25134.62
669.329	25215.62
670.089	25232.62
670.849	25430.62
671.608	25484.62
672.368	25444.62
673.127	25497.62
673.886	25440.62
674.646	25433.62
675.405	25308.62
676.164	25272.62
676.923	25149.62
677.682	24966.62
678.44	24888.62
679.199	24754.62
679.958	24737.62
680.717	24846.62
681.475	25256.62
682.233	25888.62
682.992	25979.62
683.75	25472.62
684.508	24875.62
685.266	24324.62
686.024	23781.62
686.782	23505.62
687.54	23288.62
688.298	23009.62
689.056	22756.62
689.814	22279.62
690.571	21850.62
691.329	21442.62
692.086	21016.62
692.843	20577.62
693.601	20296.62
694.358	19830.62
695.115	19522.62
695.872	19079.62
696.629	18868.62
697.386	18611.62
698.143	18309.62
698.9	18058.62
699.656	17820.62
700.413	17745.62
701.169	17595.62
701.926	17482.62
702.682	17398.62
703.438	17171.62
704.195	17086.62
704.951	16977.62
705.707	16873.62
706.463	16751.62
707.219	16711.62
707.974	16674.62
708.73	16670.62
709.486	16601.62
710.241	16567.62
710.997	16446.62
711.752	16378.62
712.508	16183.62
713.263	15817.62
714.018	15412.62
714.773	15029.62
715.528	14555.62
716.283	14097.62
717.038	13643.62
717.793	13241.62
718.548	12714.62
719.303	12196.62
720.057	11650.62
720.812	11217.62
721.566	10880.62
722.321	10476.62
723.075	10184.62
723.829	9978.62
724.583	9741.62
725.337	9560.62
726.091	9374.62
726.845	9232.62
727.599	9220.62
728.353	9102.62
729.106	9011.62
729.86	8857.62
730.614	8931.62
731.367	8875.62
732.12	9027.62
732.874	9005.62
733.627	8668.62
734.38	8229.62
735.133	7829.62
735.886	7510.62
736.639	7244.62
737.392	7034.62
738.145	6965.62
738.897	6906.62
739.65	6822.62
740.403	6743.62
741.155	6551.62
741.907	6266.62
742.66	5812.62
743.412	5258.62
744.164	4563.62
744.916	3763.62
745.668	2860.62
746.42	1955.62
747.172	1184.62
747.924	630.62
748.676	348.62
749.427	233.62
750.179	189.62
750.93	166.62
751.682	142.62
752.433	149.62
753.184	125.62
753.935	129.62
754.687	120.62
755.438	119.62
756.189	107.62
756.939	113.62
757.69	113.62
758.441	121.62
759.192	97.62
759.942	91.62
760.693	102.62
761.443	108.62
762.194	92.62
762.944	97.62
763.694	102.62
764.444	93.62
765.194	100.62
765.944	79.62
766.694	88.62
767.444	87.62
768.194	78.62
768.943	77.62
769.693	83.62
770.443	79.62
771.192	85.62
771.941	79.62
772.691	79.62
773.44	59.62
774.189	72.62
774.938	70.62
775.687	72.62
776.436	67.62
777.185	69.62
777.934	65.62
778.683	76.62
779.431	79.62
780.18	69.62
780.928	65.62
781.677	64.62
782.425	77.62
783.173	73.62
783.922	72.62
784.67	60.62
785.418	79.62
786.166	84.62
786.914	71.62
787.661	62.62
788.409	62.62
789.157	80.62
789.904	54.62
790.652	63.62
791.399	56.62
792.147	70.62
792.894	63.62
793.641	54.62
794.388	353.62
795.136	46.62
795.883	68.62
796.629	46.62
797.376	56.62
798.123	55.62
798.87	54.62
799.616	53.62
800.363	51.62
801.109	52.62
801.856	61.62
802.602	39.62
803.349	57.62
804.095	53.62
804.841	47.62
805.587	47.62
806.333	51.62
807.079	48.62
807.825	41.62
808.57	42.62
809.316	56.62
810.062	55.62
810.807	45.62
811.553	45.62
812.298	42.62
813.043	53.62
813.788	41.62
814.534	45.62
815.279	39.62
816.024	43.62
816.769	41.62
817.514	44.62
818.258	54.62
819.003	53.62
819.748	250.62
820.492	40.62
821.237	93.62
821.981	40.62
822.726	44.62
823.47	32.62
824.214	38.62
824.958	44.62
825.702	38.62
826.446	34.62
827.19	38.62
827.934	28.62
828.678	41.62
829.421	42.62
830.165	35.62
830.909	49.62
831.652	26.62
832.395	40.62
833.139	29.62
833.882	48.62
834.625	30.62
835.368	37.62
836.111	30.62
836.854	36.62
837.597	47.62
838.34	27.62
839.083	48.62
839.825	34.62
840.568	42.62
841.311	33.62
842.053	37.62
842.795	33.62
843.538	41.62
844.28	33.62
845.022	29.62
845.764	36.62
846.506	21.62
847.248	36.62
847.99	28.62
848.732	33.62
849.474	28.62
850.215	28.62
850.957	38.62
851.698	32.62
852.44	21.62
853.181	43.62
853.922	35.62
854.664	43.62
855.405	48.62
856.146	47.62
856.887	43.62
857.628	27.62
858.369	18.62
859.109	33.62
859.85	37.62
860.591	28.62
861.331	50.62
862.072	32.62
862.812	23.62
863.553	32.62
864.293	32.62
865.033	33.62
865.773	34.62
866.513	20.62
867.253	37.62
867.993	25.62
868.733	40.62
869.473	32.62
870.213	36.62
870.952	25.62
871.692	26.62
872.431	37.62
873.171	40.62
873.91	35.62
874.649	37.62
875.388	45.62
876.128	39.62
876.867	32.62
877.606	35.62
878.345	38.62
879.083	33.62
879.822	35.62
880.561	42.62
881.299	38.62
882.038	39.62
882.777	43.62
883.515	36.62
884.253	-33.38
884.992	38.62
885.73	29.62
886.468	31.62
887.206	35.62
887.944	46.62
888.682	25.62
889.42	34.62
890.157	36.62
890.895	35.62
891.633	28.62
892.37	32.62
893.108	38.62
893.845	30.62
894.583	33.62
895.32	40.62
896.057	20.62
896.794	36.62
897.531	26.62
898.268	22.62
899.005	32.62
899.742	39.62
900.479	23.62
901.215	17.62
901.952	27.62
902.689	35.62
903.425	33.62
904.162	20.62
904.898	27.62
905.634	11.62
906.37	27.62
907.106	20.62
907.843	15.62
908.579	23.62
909.314	21.62
910.05	37.62
910.786	37.62
911.522	16.62
912.257	21.62
912.993	12.62
913.728	14.62
914.464	29.62
915.199	25.62
915.935	42.62
916.67	38.62
917.405	24.62
918.14	23.62
918.875	41.62
919.61	34.62
920.345	32.62
921.08	37.62
921.814	29.62
922.549	17.62
923.284	-24.38
924.018	22.62
924.752	24.62
925.487	32.62
926.221	31.62
926.955	23.62
927.69	20.62
928.424	25.62
929.158	30.62
929.892	10.62
930.625	25.62
931.359	29.62
932.093	19.62
932.827	41.62
933.56	39.62
934.294	27.62
935.027	26.62
935.761	37.62
936.494	29.62
937.227	25.62
937.96	21.62
938.693	37.62
939.426	26.62
940.159	20.62
940.892	22.62
941.625	20.62
942.358	24.62
943.091	34.62
943.823	33.62
944.556	22.62
945.288	37.62
946.021	30.62
946.753	27.62
947.485	28.62
948.217	29.62
948.95	40.62
949.682	10.62
950.414	18.62
951.146	26.62
951.877	22.62
952.609	26.62
953.341	17.62
954.073	27.62
954.804	20.62
955.536	39.62
956.267	21.62
956.998	18.62
957.73	22.62
958.461	14.62
959.192	40.62
959.923	35.62
960.654	39.62
961.385	21.62
962.116	24.62
962.847	27.62
963.578	25.62
964.308	29.62
965.039	18.62
965.769	20.62
966.5	17.62
967.23	18.62
967.961	21.62
968.691	36.62
969.421	27.62
970.151	28.62
970.881	33.62
971.611	26.62
972.341	25.62
973.071	16.62
973.801	25.62
974.53	38.62
975.26	30.62
975.99	16.62
976.719	19.62
977.448	29.62
978.178	25.62
978.907	29.62
979.636	34.62
980.365	17.62
981.095	14.62
981.824	34.62
982.553	18.62
983.281	6.62
984.01	4.62
984.739	1.62
985.468	-0.38
986.196	-4.38
986.925	49.62
987.653	39.62
988.382	26.62
989.11	35.62
989.838	38.62
990.566	31.62
991.295	14.62
992.023	32.62
992.751	26.62
993.478	29.62
994.206	31.62
994.934	16.62
995.662	-3.38
996.389	3.62
997.117	-6.38
997.845	4.62
