Data from White_Subt2_002.txt Node
Date: Tue Aug 27 12:40:01 EDT 2019
User: wcc
Spectrometer: QEPB0759
Trigger mode: 0
Integration Time (sec): 1.000000E0
Scans to average: 1
Electric dark correction enabled: true
Nonlinearity correction enabled: false
Boxcar width: 0
XAxis mode: Wavelengths
Number of Pixels in Spectrum: 1044
>>>>>Begin Spectral Data<<<<<
197.938	41.25
198.749	41.25
199.559	54.25
200.369	35.25
201.179	30.25
201.988	43.25
202.798	56.25
203.608	27.25
204.417	36.25
205.227	36.25
206.036	29.25
206.846	40.25
207.655	36.25
208.464	34.25
209.273	44.25
210.082	36.25
210.891	45.25
211.7	28.25
212.508	41.25
213.317	33.25
214.125	31.25
214.934	41.25
215.742	37.25
216.55	38.25
217.359	38.25
218.167	50.25
218.975	40.25
219.782	54.25
220.59	37.25
221.398	33.25
222.206	36.25
223.013	47.25
223.82	45.25
224.628	36.25
225.435	46.25
226.242	41.25
227.049	33.25
227.856	44.25
228.663	41.25
229.47	30.25
230.277	41.25
231.083	46.25
231.89	34.25
232.696	43.25
233.502	50.25
234.309	39.25
235.115	44.25
235.921	35.25
236.727	33.25
237.533	26.25
238.339	46.25
239.144	34.25
239.95	40.25
240.756	41.25
241.561	39.25
242.366	44.25
243.172	47.25
243.977	36.25
244.782	39.25
245.587	36.25
246.392	33.25
247.197	28.25
248.001	51.25
248.806	47.25
249.611	47.25
250.415	35.25
251.219	45.25
252.024	24.25
252.828	45.25
253.632	43.25
254.436	43.25
255.24	53.25
256.044	40.25
256.848	34.25
257.651	39.25
258.455	38.25
259.258	45.25
260.062	-994.75
260.865	32.25
261.668	45.25
262.471	26.25
263.274	41.25
264.077	33.25
264.88	28.25
265.683	47.25
266.486	30.25
267.288	37.25
268.091	46.25
268.893	36.25
269.696	37.25
270.498	44.25
271.3	40.25
272.102	50.25
272.904	43.25
273.706	42.25
274.508	28.25
275.309	66.25
276.111	67.25
276.913	39.25
277.714	38.25
278.515	35.25
279.317	46.25
280.118	45.25
280.919	36.25
281.72	43.25
282.521	57.25
283.322	50.25
284.122	38.25
284.923	33.25
285.724	37.25
286.524	58.25
287.325	57.25
288.125	34.25
288.925	42.25
289.725	31.25
290.525	41.25
291.325	49.25
292.125	29.25
292.925	54.25
293.724	44.25
294.524	34.25
295.324	43.25
296.123	51.25
296.922	40.25
297.722	49.25
298.521	52.25
299.32	36.25
300.119	48.25
300.918	50.25
301.716	38.25
302.515	47.25
303.314	43.25
304.112	46.25
304.911	42.25
305.709	45.25
306.507	53.25
307.306	44.25
308.104	48.25
308.902	46.25
309.7	47.25
310.498	36.25
311.295	50.25
312.093	48.25
312.891	35.25
313.688	53.25
314.485	38.25
315.283	40.25
316.08	37.25
316.877	53.25
317.674	40.25
318.471	41.25
319.268	40.25
320.065	43.25
320.862	43.25
321.658	47.25
322.455	52.25
323.251	42.25
324.047	44.25
324.844	44.25
325.64	37.25
326.436	46.25
327.232	33.25
328.028	55.25
328.824	63.25
329.62	46.25
330.415	44.25
331.211	37.25
332.006	45.25
332.802	55.25
333.597	45.25
334.392	50.25
335.187	48.25
335.982	49.25
336.777	52.25
337.572	41.25
338.367	51.25
339.162	40.25
339.956	38.25
340.751	45.25
341.545	51.25
342.34	33.25
343.134	45.25
343.928	51.25
344.722	51.25
345.516	45.25
346.31	36.25
347.104	64.25
347.898	58.25
348.691	45.25
349.485	45.25
350.278	52.25
351.072	53.25
351.865	521.25
352.658	41.25
353.452	43.25
354.245	38.25
355.038	46.25
355.83	59.25
356.623	56.25
357.416	55.25
358.209	48.25
359.001	43.25
359.794	49.25
360.586	54.25
361.378	48.25
362.17	36.25
362.963	39.25
363.755	46.25
364.546	42.25
365.338	43.25
366.13	61.25
366.922	54.25
367.713	48.25
368.505	59.25
369.296	60.25
370.088	65.25
370.879	55.25
371.67	56.25
372.461	50.25
373.252	55.25
374.043	66.25
374.834	63.25
375.625	99.25
376.415	76.25
377.206	90.25
377.996	112.25
378.787	144.25
379.577	156.25
380.367	175.25
381.157	195.25
381.947	243.25
382.737	275.25
383.527	326.25
384.317	372.25
385.107	438.25
385.896	472.25
386.686	564.25
387.475	642.25
388.265	755.25
389.054	831.25
389.843	929.25
390.632	1063.25
391.421	1160.25
392.21	1288.25
392.999	1434.25
393.788	1566.25
394.576	1736.25
395.365	1901.25
396.154	2079.25
396.942	2250.25
397.73	2436.25
398.519	2579.25
399.307	2724.25
400.095	2895.25
400.883	3073.25
401.671	3262.25
402.459	3464.25
403.246	3630.25
404.034	3839.25
404.822	4013.25
405.609	4172.25
406.396	4281.25
407.184	4374.25
407.971	4517.25
408.758	4602.25
409.545	4691.25
410.332	4829.25
411.119	4954.25
411.906	5124.25
412.693	5320.25
413.479	5564.25
414.266	5819.25
415.052	6174.25
415.839	6449.25
416.625	6816.25
417.411	7117.25
418.197	7423.25
418.983	7641.25
419.769	7724.25
420.555	7633.25
421.341	7546.25
422.127	7446.25
422.912	7418.25
423.698	7384.25
424.483	7434.25
425.269	7520.25
426.054	7635.25
426.839	7863.25
427.624	8137.25
428.409	8396.25
429.194	8720.25
429.979	9063.25
430.764	9367.25
431.549	9647.25
432.333	9864.25
433.118	10045.25
433.902	10241.25
434.687	10387.25
435.471	10467.25
436.255	10627.25
437.039	10831.25
437.823	10977.25
438.607	11101.25
439.391	11050.25
440.175	11114.25
440.958	11263.25
441.742	11410.25
442.526	11566.25
443.309	11715.25
444.092	11918.25
444.876	12144.25
445.659	12278.25
446.442	12507.25
447.225	12826.25
448.008	13398.25
448.791	14589.25
449.573	15706.25
450.356	15804.25
451.139	15607.25
451.921	15843.25
452.704	15674.25
453.486	15566.25
454.268	15874.25
455.05	16341.25
455.833	16872.25
456.615	17380.25
457.396	17963.25
458.178	18150.25
458.96	18182.25
459.742	18191.25
460.523	18612.25
461.305	19158.25
462.086	19711.25
462.868	19953.25
463.649	19857.25
464.43	19755.25
465.211	20129.25
465.992	21264.25
466.773	22994.25
467.554	24125.25
468.335	24242.25
469.115	23537.25
469.896	22892.25
470.676	22300.25
471.457	22597.25
472.237	24347.25
473.018	25192.25
473.798	23717.25
474.578	22068.25
475.358	21478.25
476.138	21370.25
476.918	21340.25
477.697	21504.25
478.477	21975.25
479.257	22872.25
480.036	24112.25
480.816	25191.25
481.595	25700.25
482.374	25686.25
483.153	25657.25
483.932	25375.25
484.711	25081.25
485.49	24937.25
486.269	25113.25
487.048	25441.25
487.827	25851.25
488.605	26365.25
489.384	27003.25
490.162	28095.25
490.941	30049.25
491.719	31535.25
492.497	31702.25
493.275	31195.25
494.053	30672.25
494.831	30214.25
495.609	30011.25
496.387	30006.25
497.164	30138.25
497.942	30273.25
498.72	30349.25
499.497	30521.25
500.274	30731.25
501.052	31041.25
501.829	31394.25
502.606	31716.25
503.383	31924.25
504.16	32151.25
504.937	32145.25
505.714	32419.25
506.49	32620.25
507.267	32779.25
508.043	33040.25
508.82	33343.25
509.596	33648.25
510.373	33994.25
511.149	34379.25
511.925	34841.25
512.701	35236.25
513.477	35483.25
514.253	35833.25
515.029	36087.25
515.804	36350.25
516.58	36777.25
517.356	37051.25
518.131	37373.25
518.906	37649.25
519.682	37988.25
520.457	38218.25
521.232	38560.25
522.007	38872.25
522.782	38972.25
523.557	39234.25
524.332	39383.25
525.107	39521.25
525.881	39631.25
526.656	39617.25
527.43	39718.25
528.205	39934.25
528.979	39830.25
529.753	39718.25
530.527	39607.25
531.302	39371.25
532.076	39372.25
532.849	39226.25
533.623	39132.25
534.397	38843.25
535.171	38665.25
535.944	38509.25
536.718	38309.25
537.491	38079.25
538.265	38014.25
539.038	37951.25
539.811	38034.25
540.584	37980.25
541.357	38050.25
542.13	38016.25
542.903	37930.25
543.676	37893.25
544.449	37946.25
545.221	37842.25
545.994	37797.25
546.766	37904.25
547.539	37889.25
548.311	37973.25
549.083	38071.25
549.855	38133.25
550.627	38258.25
551.399	38526.25
552.171	38679.25
552.943	38933.25
553.715	39175.25
554.486	39395.25
555.258	39719.25
556.029	40028.25
556.801	40246.25
557.572	40621.25
558.343	40910.25
559.114	41108.25
559.886	41515.25
560.657	41689.25
561.427	42061.25
562.198	42270.25
562.969	42461.25
563.74	42579.25
564.51	42694.25
565.281	43002.25
566.051	42963.25
566.822	43148.25
567.592	43052.25
568.362	42991.25
569.132	42922.25
569.902	42726.25
570.672	42440.25
571.442	42310.25
572.212	42149.25
572.982	41999.25
573.751	41772.25
574.521	41615.25
575.29	41503.25
576.06	41319.25
576.829	41162.25
577.598	41031.25
578.367	40907.25
579.136	40840.25
579.905	40643.25
580.674	40708.25
581.443	40737.25
582.212	40630.25
582.981	40810.25
583.749	40715.25
584.518	40820.25
585.286	40886.25
586.054	40907.25
586.823	41027.25
587.591	40935.25
588.359	41047.25
589.127	41057.25
589.895	41146.25
590.663	41026.25
591.431	41054.25
592.198	40979.25
592.966	40951.25
593.734	40933.25
594.501	40806.25
595.268	40677.25
596.036	40586.25
596.803	40393.25
597.57	40180.25
598.337	40008.25
599.104	39815.25
599.871	39579.25
600.638	39346.25
601.405	39093.25
602.171	38918.25
602.938	38660.25
603.704	38505.25
604.471	38353.25
605.237	38184.25
606.004	38018.25
606.77	37903.25
607.536	37888.25
608.302	37758.25
609.068	37740.25
609.834	37798.25
610.599	37788.25
611.365	37730.25
612.131	37860.25
612.896	37840.25
613.662	37845.25
614.427	37728.25
615.193	37700.25
615.958	37711.25
616.723	37690.25
617.488	37622.25
618.253	37526.25
619.018	37383.25
619.783	37209.25
620.548	37186.25
621.312	37146.25
622.077	36839.25
622.842	36666.25
623.606	36473.25
624.37	36247.25
625.135	36055.25
625.899	35857.25
626.663	35435.25
627.427	35206.25
628.191	34861.25
628.955	34633.25
629.719	34392.25
630.483	34055.25
631.246	33679.25
632.01	33406.25
632.773	33059.25
633.537	32707.25
634.3	32251.25
635.063	31904.25
635.827	31441.25
636.59	31130.25
637.353	30827.25
638.116	30375.25
638.879	30121.25
639.641	29700.25
640.404	29447.25
641.167	29111.25
641.929	28792.25
642.692	28488.25
643.454	28277.25
644.216	28026.25
644.979	27744.25
645.741	27603.25
646.503	27459.25
647.265	27355.25
648.027	27129.25
648.789	27020.25
649.551	26844.25
650.312	26380.25
651.074	25930.25
651.835	25492.25
652.597	25219.25
653.358	24957.25
654.12	24733.25
654.881	24534.25
655.642	24466.25
656.403	24335.25
657.164	24207.25
657.925	24153.25
658.686	24148.25
659.447	24063.25
660.207	24181.25
660.968	24145.25
661.728	24249.25
662.489	24310.25
663.249	24453.25
664.01	24530.25
664.77	24578.25
665.53	24787.25
666.29	24893.25
667.05	25013.25
667.81	25073.25
668.57	25178.25
669.329	25233.25
670.089	25271.25
670.849	25375.25
671.608	25483.25
672.368	25470.25
673.127	25453.25
673.886	25480.25
674.646	25361.25
675.405	25323.25
676.164	25345.25
676.923	25098.25
677.682	25012.25
678.44	24915.25
679.199	24781.25
679.958	24686.25
680.717	24917.25
681.475	25242.25
682.233	25809.25
682.992	25951.25
683.75	25471.25
684.508	24859.25
685.266	24253.25
686.024	23818.25
686.782	23515.25
687.54	23305.25
688.298	22939.25
689.056	22634.25
689.814	22272.25
690.571	21894.25
691.329	21432.25
692.086	20978.25
692.843	20572.25
693.601	20233.25
694.358	19814.25
695.115	19437.25
695.872	19101.25
696.629	18823.25
697.386	18560.25
698.143	18299.25
698.9	18067.25
699.656	17904.25
700.413	17700.25
701.169	17546.25
701.926	17430.25
702.682	17355.25
703.438	17212.25
704.195	17071.25
704.951	16974.25
705.707	16839.25
706.463	16788.25
707.219	16711.25
707.974	16630.25
708.73	16618.25
709.486	16600.25
710.241	16581.25
710.997	16475.25
711.752	16403.25
712.508	16193.25
713.263	15826.25
714.018	15405.25
714.773	15087.25
715.528	14571.25
716.283	14126.25
717.038	13660.25
717.793	13258.25
718.548	12667.25
719.303	12173.25
720.057	11654.25
720.812	11223.25
721.566	10865.25
722.321	10509.25
723.075	10212.25
723.829	9945.25
724.583	9725.25
725.337	9596.25
726.091	9333.25
726.845	9308.25
727.599	9239.25
728.353	9139.25
729.106	8977.25
729.86	8840.25
730.614	8907.25
731.367	8910.25
732.12	9086.25
732.874	8928.25
733.627	8690.25
734.38	8269.25
735.133	7824.25
735.886	7492.25
736.639	7239.25
737.392	7085.25
738.145	6971.25
738.897	6900.25
739.65	6808.25
740.403	6751.25
741.155	6583.25
741.907	6260.25
742.66	5845.25
743.412	5260.25
744.164	4580.25
744.916	3770.25
745.668	2881.25
746.42	1959.25
747.172	1189.25
747.924	640.25
748.676	340.25
749.427	230.25
750.179	189.25
750.93	175.25
751.682	138.25
752.433	147.25
753.184	142.25
753.935	127.25
754.687	114.25
755.438	113.25
756.189	112.25
756.939	107.25
757.69	103.25
758.441	105.25
759.192	106.25
759.942	97.25
760.693	113.25
761.443	101.25
762.194	105.25
762.944	105.25
763.694	109.25
764.444	87.25
765.194	106.25
765.944	83.25
766.694	88.25
767.444	81.25
768.194	79.25
768.943	86.25
769.693	89.25
770.443	86.25
771.192	87.25
771.941	70.25
772.691	74.25
773.44	79.25
774.189	74.25
774.938	75.25
775.687	72.25
776.436	69.25
777.185	75.25
777.934	64.25
778.683	67.25
779.431	84.25
780.18	73.25
780.928	67.25
781.677	75.25
782.425	74.25
783.173	77.25
783.922	72.25
784.67	62.25
785.418	78.25
786.166	82.25
786.914	64.25
787.661	63.25
788.409	68.25
789.157	75.25
789.904	62.25
790.652	75.25
791.399	60.25
792.147	63.25
792.894	58.25
793.641	55.25
794.388	122.25
795.136	35.25
795.883	56.25
796.629	46.25
797.376	52.25
798.123	46.25
798.87	57.25
799.616	51.25
800.363	58.25
801.109	54.25
801.856	47.25
802.602	45.25
803.349	48.25
804.095	55.25
804.841	40.25
805.587	40.25
806.333	46.25
807.079	51.25
807.825	58.25
808.57	37.25
809.316	65.25
810.062	41.25
810.807	42.25
811.553	52.25
812.298	56.25
813.043	51.25
813.788	42.25
814.534	45.25
815.279	33.25
816.024	48.25
816.769	40.25
817.514	35.25
818.258	48.25
819.003	40.25
819.748	304.25
820.492	40.25
821.237	46.25
821.981	33.25
822.726	34.25
823.47	26.25
824.214	25.25
824.958	40.25
825.702	39.25
826.446	37.25
827.19	42.25
827.934	30.25
828.678	33.25
829.421	39.25
830.165	40.25
830.909	43.25
831.652	21.25
832.395	32.25
833.139	30.25
833.882	42.25
834.625	40.25
835.368	35.25
836.111	31.25
836.854	39.25
837.597	33.25
838.34	35.25
839.083	34.25
839.825	34.25
840.568	33.25
841.311	33.25
842.053	40.25
842.795	41.25
843.538	35.25
844.28	30.25
845.022	26.25
845.764	29.25
846.506	24.25
847.248	35.25
847.99	32.25
848.732	37.25
849.474	33.25
850.215	31.25
850.957	32.25
851.698	39.25
852.44	33.25
853.181	31.25
853.922	35.25
854.664	39.25
855.405	38.25
856.146	38.25
856.887	32.25
857.628	35.25
858.369	17.25
859.109	30.25
859.85	39.25
860.591	27.25
861.331	51.25
862.072	40.25
862.812	32.25
863.553	18.25
864.293	49.25
865.033	39.25
865.773	25.25
866.513	29.25
867.253	34.25
867.993	35.25
868.733	22.25
869.473	22.25
870.213	31.25
870.952	27.25
871.692	33.25
872.431	38.25
873.171	29.25
873.91	41.25
874.649	34.25
875.388	47.25
876.128	43.25
876.867	34.25
877.606	32.25
878.345	35.25
879.083	29.25
879.822	34.25
880.561	43.25
881.299	47.25
882.038	32.25
882.777	21.25
883.515	32.25
884.253	155.25
884.992	37.25
885.73	33.25
886.468	32.25
887.206	38.25
887.944	31.25
888.682	31.25
889.42	30.25
890.157	25.25
890.895	31.25
891.633	40.25
892.37	39.25
893.108	31.25
893.845	40.25
894.583	23.25
895.32	35.25
896.057	17.25
896.794	34.25
897.531	30.25
898.268	13.25
899.005	30.25
899.742	41.25
900.479	22.25
901.215	17.25
901.952	31.25
902.689	32.25
903.425	25.25
904.162	7.25
904.898	24.25
905.634	20.25
906.37	21.25
907.106	25.25
907.843	21.25
908.579	25.25
909.314	28.25
910.05	40.25
910.786	33.25
911.522	19.25
912.257	22.25
912.993	22.25
913.728	15.25
914.464	33.25
915.199	30.25
915.935	36.25
916.67	30.25
917.405	23.25
918.14	17.25
918.875	38.25
919.61	39.25
920.345	29.25
921.08	32.25
921.814	25.25
922.549	18.25
923.284	-9.75
924.018	21.25
924.752	30.25
925.487	27.25
926.221	31.25
926.955	29.25
927.69	22.25
928.424	23.25
929.158	35.25
929.892	14.25
930.625	28.25
931.359	24.25
932.093	13.25
932.827	28.25
933.56	32.25
934.294	17.25
935.027	26.25
935.761	34.25
936.494	19.25
937.227	23.25
937.96	26.25
938.693	35.25
939.426	28.25
940.159	17.25
940.892	22.25
941.625	14.25
942.358	18.25
943.091	34.25
943.823	16.25
944.556	9.25
945.288	30.25
946.021	31.25
946.753	29.25
947.485	28.25
948.217	14.25
948.95	24.25
949.682	10.25
950.414	24.25
951.146	21.25
951.877	19.25
952.609	28.25
953.341	24.25
954.073	26.25
954.804	26.25
955.536	38.25
956.267	26.25
956.998	16.25
957.73	21.25
958.461	13.25
959.192	33.25
959.923	24.25
960.654	37.25
961.385	22.25
962.116	18.25
962.847	18.25
963.578	24.25
964.308	35.25
965.039	27.25
965.769	24.25
966.5	25.25
967.23	26.25
967.961	19.25
968.691	28.25
969.421	33.25
970.151	23.25
970.881	34.25
971.611	25.25
972.341	24.25
973.071	20.25
973.801	35.25
974.53	25.25
975.26	17.25
975.99	14.25
976.719	30.25
977.448	31.25
978.178	25.25
978.907	20.25
979.636	33.25
980.365	16.25
981.095	20.25
981.824	38.25
982.553	17.25
983.281	4.25
984.01	1.25
984.739	-9.75
985.468	11.25
986.196	-3.75
986.925	39.25
987.653	34.25
988.382	27.25
989.11	34.25
989.838	33.25
990.566	33.25
991.295	13.25
992.023	12.25
992.751	25.25
993.478	24.25
994.206	21.25
994.934	20.25
995.662	2.25
996.389	-3.75
997.117	-0.75
997.845	3.25
